loadapp_2024_03_18_12_53_16_589.loadflux
comment new app 11 sec og walk
	P1V477-L		P1V450-R		
Time[secs]	Force[N]	Time[secs]	Force[N]	
0.000	25.000	0.000	877.500		
0.005	25.000	0.005	873.990		
0.010	17.500	0.010	873.990		
0.015	15.000	0.015	859.950		
0.020	15.000	0.020	856.440		
0.025	12.500	0.025	849.420		
0.030	10.000	0.030	845.910		
0.035	7.500	0.035	849.420		
0.040	5.000	0.040	842.400		
0.045	5.000	0.045	838.890		
0.050	2.500	0.050	831.870		
0.055	7.500	0.055	835.380		
0.060	7.500	0.060	831.870		
0.065	2.500	0.065	831.870		
0.070	7.500	0.070	824.850		
0.075	4.980	0.075	827.640		
0.080	2.490	0.080	827.640		
0.085	2.490	0.085	827.640		
0.090	2.490	0.090	824.220		
0.095	4.980	0.095	827.640		
0.100	0.000	0.100	834.480		
0.105	0.000	0.105	831.060		
0.110	2.490	0.110	834.480		
0.115	0.000	0.115	831.060		
0.120	2.490	0.120	834.480		
0.125	0.000	0.125	841.320		
0.130	0.000	0.130	844.740		
0.135	2.490	0.135	844.740		
0.140	0.000	0.140	851.580		
0.145	7.500	0.145	855.000		
0.150	7.480	0.150	856.680		
0.155	7.480	0.155	856.680		
0.160	2.380	0.160	856.680		
0.165	2.380	0.165	860.220		
0.170	4.930	0.170	863.760		
0.180	4.930	0.175	863.760		
0.180	4.930	0.180	867.300		
0.185	7.480	0.185	870.840		
0.190	7.480	0.195	874.380		
0.195	0.000	0.195	874.380		
0.200	4.930	0.200	881.460		
0.205	4.930	0.205	874.380		
0.210	7.480	0.210	877.920		
0.215	19.890	0.215	881.460		
0.220	29.920	0.220	877.920		
0.225	42.500	0.225	885.000		
0.230	76.440	0.230	877.920		
0.235	119.560	0.235	885.000		
0.240	166.600	0.240	877.920		
0.245	211.680	0.245	877.920		
0.250	239.120	0.250	874.380		
0.255	248.920	0.255	877.920		
0.260	256.760	0.260	874.380		
0.265	274.400	0.265	870.840		
0.270	295.960	0.270	867.300		
0.275	329.280	0.275	849.600		
0.280	364.560	0.280	838.980		
0.285	399.840	0.285	824.820		
0.290	427.280	0.290	800.040		
0.295	456.680	0.295	782.340		
0.300	490.000	0.300	761.100		
0.305	524.700	0.305	745.000		
0.310	554.400	0.310	727.120		
0.315	590.700	0.315	712.220		
0.320	620.400	0.320	697.320		
0.325	646.800	0.325	688.380		
0.330	679.800	0.330	679.440		
0.335	699.600	0.335	664.540		
0.340	719.400	0.340	649.640		
0.345	742.500	0.345	634.740		
0.350	755.700	0.350	622.820		
0.355	768.900	0.355	604.940		
0.365	792.000	0.360	575.140		
0.365	792.000	0.365	548.320		
0.370	801.900	0.370	521.500		
0.375	818.400	0.375	491.700		
0.380	825.000	0.380	460.000		
0.385	839.360	0.385	423.200		
0.390	839.360	0.395	393.760		
0.395	846.240	0.395	393.760		
0.400	860.000	0.400	356.960		
0.405	853.120	0.405	314.640		
0.410	856.560	0.410	252.080		
0.415	856.560	0.415	206.080		
0.420	853.120	0.420	169.280		
0.425	853.120	0.425	143.520		
0.430	849.680	0.430	115.920		
0.435	842.800	0.435	101.200		
0.440	835.920	0.440	84.640		
0.445	825.600	0.445	77.280		
0.450	822.160	0.450	64.400		
0.455	808.400	0.455	51.520		
0.460	805.000	0.460	47.500		
0.465	795.340	0.465	42.370		
0.470	779.240	0.470	42.370		
0.475	769.580	0.475	34.960		
0.480	766.360	0.480	34.960		
0.485	756.700	0.485	34.960		
0.490	740.600	0.490	34.960		
0.495	737.380	0.495	32.490		
0.500	724.500	0.500	27.360		
0.505	711.620	0.505	27.360		
0.510	708.400	0.510	19.950		
0.515	698.740	0.515	17.480		
0.520	695.520	0.520	22.420		
0.525	682.640	0.525	9.880		
0.530	669.760	0.530	7.410		
0.535	666.660	0.535	5.000		
0.545	663.950	0.540	10.000		
0.545	663.950	0.545	2.480		
0.550	655.820	0.550	5.000		
0.555	650.400	0.555	5.000		
0.560	650.400	0.560	5.000		
0.565	647.690	0.565	7.480		
0.570	644.980	0.570	2.480		
0.575	644.980	0.575	2.480		
0.580	647.690	0.580	2.480		
0.585	647.690	0.590	0.000		
0.590	653.110	0.590	0.000		
0.595	655.820	0.595	0.000		
0.600	655.820	0.600	2.480		
0.605	669.370	0.605	0.000		
0.610	677.500	0.610	2.480		
0.615	684.600	0.615	0.000		
0.620	687.860	0.620	0.000		
0.625	697.640	0.625	0.000		
0.630	707.420	0.630	2.500		
0.635	717.200	0.635	0.000		
0.640	726.980	0.640	2.500		
0.645	736.760	0.645	0.000		
0.650	749.800	0.650	0.000		
0.655	759.580	0.655	0.000		
0.660	769.360	0.660	0.000		
0.665	782.400	0.665	2.500		
0.670	788.920	0.670	0.000		
0.675	795.440	0.675	0.000		
0.680	805.220	0.680	0.000		
0.685	815.000	0.685	2.500		
0.690	819.400	0.690	2.490		
0.695	829.600	0.695	0.000		
0.700	829.600	0.700	4.980		
0.705	839.800	0.705	2.490		
0.710	839.800	0.710	2.490		
0.715	839.800	0.715	0.000		
0.720	850.000	0.720	7.500		
0.730	839.800	0.725	4.980		
0.730	839.800	0.730	2.490		
0.735	846.600	0.735	0.000		
0.740	843.200	0.740	7.500		
0.745	846.600	0.745	0.000		
0.750	836.400	0.750	0.000		
0.755	836.400	0.755	2.490		
0.760	839.800	0.760	2.490		
0.765	836.400	0.765	8.080		
0.770	837.500	0.770	26.260		
0.775	830.800	0.775	26.260		
0.780	830.800	0.780	34.340		
0.785	827.450	0.790	60.600		
0.790	807.350	0.790	60.600		
0.795	807.350	0.795	123.220		
0.800	793.950	0.800	204.020		
0.805	783.900	0.805	284.820		
0.810	760.450	0.810	341.380		
0.815	743.700	0.815	373.700		
0.820	720.250	0.820	393.900		
0.825	676.700	0.825	414.100		
0.830	636.500	0.830	436.320		
0.835	572.850	0.835	468.640		
0.840	519.250	0.840	505.000		
0.845	462.500	0.845	548.800		
0.850	399.600	0.850	591.920		
0.855	334.850	0.855	631.120		
0.860	273.800	0.860	666.400		
0.865	222.000	0.865	701.680		
0.870	175.750	0.870	736.960		
0.875	142.450	0.875	776.160		
0.880	123.950	0.880	811.440		
0.885	103.600	0.885	834.960		
0.890	94.350	0.890	866.320		
0.895	79.550	0.895	893.760		
0.900	61.050	0.900	917.280		
0.910	46.250	0.905	944.720		
0.910	46.250	0.910	964.320		
0.915	40.700	0.915	980.000		
0.920	33.300	0.920	996.300		
0.925	30.000	0.925	1008.600		
0.930	19.920	0.930	1016.800		
0.935	12.480	0.935	1016.800		
0.940	15.000	0.940	1020.900		
0.945	9.960	0.945	1025.000		
0.950	7.440	0.950	1025.000		
0.955	7.440	0.955	1025.000		
0.960	4.920	0.960	1020.900		
0.965	0.000	0.965	1016.800		
0.970	0.000	0.970	1004.500		
0.975	0.000	0.975	992.200		
0.980	2.400	0.985	975.800		
0.985	2.400	0.985	975.800		
0.990	0.000	0.990	967.600		
0.995	0.000	0.995	951.200		
1.000	0.000	1.000	940.000		
1.005	0.000	1.005	924.960		
1.010	0.000	1.010	902.400		
1.015	0.000	1.015	879.840		
1.020	0.000	1.020	864.800		
1.025	0.000	1.025	857.280		
1.030	0.000	1.030	834.720		
1.035	2.500	1.035	819.680		
1.040	2.500	1.040	804.640		
1.045	2.500	1.045	785.840		
1.050	0.000	1.050	774.560		
1.055	2.500	1.055	763.280		
1.060	0.000	1.060	748.240		
1.065	0.000	1.065	736.960		
1.070	0.000	1.070	729.440		
1.075	0.000	1.075	720.000		
1.080	0.000	1.080	711.360		
1.085	0.000	1.085	702.720		
1.095	0.000	1.090	699.840		
1.095	0.000	1.095	694.080		
1.100	2.500	1.100	691.200		
1.105	2.500	1.105	688.320		
1.110	0.000	1.110	691.200		
1.115	2.500	1.115	694.080		
1.120	0.000	1.120	691.200		
1.125	0.000	1.125	696.960		
1.130	5.000	1.130	699.840		
1.135	2.500	1.135	699.840		
1.140	5.000	1.140	702.720		
1.145	0.000	1.145	717.120		
1.150	5.000	1.150	725.610		
1.155	2.460	1.155	729.220		
1.160	2.460	1.160	743.660		
1.165	2.460	1.165	750.880		
1.170	0.000	1.170	765.320		
1.175	4.980	1.175	779.760		
1.180	7.500	1.185	794.200		
1.185	2.460	1.185	794.200		
1.190	4.980	1.190	805.030		
1.195	4.980	1.195	819.470		
1.200	4.980	1.200	833.910		
1.205	7.500	1.205	844.740		
1.210	4.980	1.210	859.180		
1.215	7.500	1.215	877.230		
1.220	9.960	1.220	888.060		
1.225	15.000	1.225	902.500		
1.230	16.400	1.230	912.450		
1.235	26.650	1.235	924.300		
1.240	41.000	1.240	936.150		
1.245	49.200	1.245	948.000		
1.250	73.800	1.250	951.950		
1.255	127.100	1.255	959.850		
1.260	233.700	1.260	967.750		
1.265	364.900	1.265	979.600		
1.275	428.450	1.270	979.600		
1.275	428.450	1.275	979.600		
1.280	461.250	1.280	987.500		
1.285	471.500	1.285	983.550		
1.290	471.500	1.290	971.700		
1.295	469.450	1.295	971.700		
1.300	483.800	1.300	971.700		
1.305	512.500	1.305	967.500		
1.310	537.200	1.310	952.020		
1.315	564.850	1.315	936.540		
1.320	596.450	1.320	917.190		
1.325	632.000	1.325	893.970		
1.330	683.350	1.330	866.880		
1.335	726.800	1.335	828.180		
1.340	778.150	1.340	789.480		
1.345	813.700	1.345	731.430		
1.350	845.300	1.350	673.380		
1.355	884.800	1.355	607.590		
1.360	904.550	1.360	549.540		
1.365	932.200	1.365	483.750		
1.370	955.900	1.370	402.480		
1.375	971.700	1.380	336.690		
1.380	987.500	1.380	336.690		
1.385	990.470	1.385	270.000		
1.390	1002.500	1.390	214.920		
1.395	998.490	1.395	171.720		
1.400	998.490	1.400	135.000		
1.405	994.480	1.405	106.920		
1.410	994.480	1.410	82.080		
1.415	974.430	1.415	66.960		
1.420	958.390	1.420	49.680		
1.425	938.340	1.425	42.120		
1.430	914.280	1.430	32.400		
1.435	902.250	1.435	27.000		
1.440	886.210	1.440	27.000		
1.445	866.160	1.445	21.600		
1.450	854.130	1.450	11.880		
1.460	842.100	1.455	9.720		
1.460	842.100	1.460	2.500		
1.465	827.500	1.465	0.000		
1.470	814.260	1.470	0.000		
1.475	804.330	1.475	0.000		
1.480	794.400	1.480	0.000		
1.485	781.160	1.485	0.000		
1.490	764.610	1.490	0.000		
1.495	754.680	1.495	0.000		
1.500	751.370	1.500	2.500		
1.505	734.820	1.505	0.000		
1.510	731.510	1.510	0.000		
1.515	724.890	1.515	0.000		
1.520	701.720	1.520	0.000		
1.525	698.410	1.525	0.000		
1.530	691.790	1.530	0.000		
1.535	688.480	1.535	0.000		
1.540	684.400	1.540	0.000		
1.545	684.400	1.545	0.000		
1.550	672.800	1.550	2.500		
1.555	675.700	1.555	0.000		
1.560	669.900	1.560	0.000		
1.565	672.800	1.565	0.000		
1.570	684.400	1.570	2.500		
1.575	684.400	1.580	0.000		
1.580	687.300	1.580	0.000		
1.585	687.300	1.585	0.000		
1.590	693.100	1.590	0.000		
1.595	704.700	1.595	0.000		
1.600	704.700	1.600	0.000		
1.605	719.200	1.605	2.500		
1.610	725.000	1.610	2.500		
1.615	740.880	1.615	0.000		
1.620	752.220	1.620	0.000		
1.625	763.560	1.625	0.000		
1.630	778.680	1.630	0.000		
1.640	786.240	1.635	0.000		
1.640	786.240	1.640	0.000		
1.645	805.140	1.645	0.000		
1.650	816.480	1.650	2.500		
1.655	835.380	1.655	0.000		
1.660	846.720	1.660	0.000		
1.665	865.620	1.665	2.500		
1.670	876.960	1.670	5.000		
1.675	895.860	1.675	0.000		
1.680	910.980	1.680	2.500		
1.685	926.100	1.685	5.000		
1.690	945.000	1.690	2.480		
1.695	961.400	1.695	0.000		
1.700	969.760	1.700	2.480		
1.705	982.300	1.705	0.000		
1.710	990.660	1.710	4.960		
1.715	1003.200	1.715	2.480		
1.720	1011.560	1.720	0.000		
1.725	1024.100	1.725	4.960		
1.730	1028.280	1.730	0.000		
1.735	1036.640	1.735	0.000		
1.740	1036.640	1.740	0.000		
1.745	1045.000	1.745	0.000		
1.750	1045.000	1.750	2.480		
1.755	1036.640	1.755	10.000		
1.760	1032.460	1.760	20.000		
1.765	1024.100	1.765	30.910		
1.770	1007.500	1.775	53.390		
1.775	987.350	1.775	53.390		
1.780	955.110	1.780	109.590		
1.785	926.900	1.785	185.460		
1.790	898.690	1.790	275.380		
1.795	846.300	1.795	359.680		
1.800	789.880	1.800	435.550		
1.805	721.370	1.805	502.990		
1.810	644.800	1.810	542.330		
1.815	544.050	1.815	559.190		
1.825	427.180	1.820	570.430		
1.825	427.180	1.825	587.290		
1.830	346.580	1.830	621.010		
1.835	274.040	1.835	660.350		
1.840	221.650	1.840	702.500		
1.845	177.320	1.845	738.000		
1.850	147.500	1.850	774.900		
1.855	124.490	1.855	799.500		
1.860	102.070	1.860	836.400		
1.865	82.010	1.865	869.200		
1.870	67.260	1.870	893.800		
1.875	59.590	1.875	918.400		
1.880	44.840	1.880	934.800		
1.885	37.170	1.885	959.400		
1.890	32.450	1.890	971.700		
1.895	22.420	1.895	984.000		
1.900	17.110	1.900	996.300		
1.905	14.750	1.905	1012.700		
1.910	12.390	1.910	1025.000		
1.915	9.440	1.915	1025.000		
1.920	4.720	1.920	1019.280		
1.925	0.000	1.925	1027.500		
1.930	0.000	1.930	1019.280		
1.935	0.000	1.935	1011.060		
1.940	0.000	1.940	1006.950		
1.945	0.000	1.945	986.400		
1.950	0.000	1.950	982.290		
1.955	0.000	1.955	965.850		
1.960	0.000	1.960	949.410		
1.965	0.000	1.965	937.080		
1.970	0.000	1.975	920.640		
1.975	2.500	1.975	920.640		
1.980	2.500	1.980	900.090		
1.985	0.000	1.985	887.760		
1.990	0.000	1.990	867.210		
1.995	0.000	1.995	846.660		
2.005	0.000	2.000	837.500		
2.005	0.000	2.005	817.400		
2.010	0.000	2.010	797.300		
2.015	2.500	2.015	783.900		
2.020	0.000	2.020	770.500		
2.025	0.000	2.025	757.100		
2.030	0.000	2.030	747.050		
2.035	0.000	2.035	733.650		
2.040	0.000	2.040	730.300		
2.045	2.500	2.045	716.900		
2.050	0.000	2.050	706.850		
2.055	2.500	2.055	700.150		
2.060	0.000	2.060	696.800		
2.065	0.000	2.065	690.100		
2.070	0.000	2.070	683.400		
2.075	0.000	2.075	679.440		
2.080	0.000	2.080	673.480		
2.085	0.000	2.085	670.500		
2.090	2.490	2.090	670.500		
2.095	4.980	2.095	676.460		
2.100	2.490	2.100	676.460		
2.105	0.000	2.105	673.480		
2.110	0.000	2.110	682.420		
2.115	2.490	2.115	691.360		
2.120	0.000	2.120	697.320		
2.125	2.490	2.125	703.280		
2.130	7.500	2.130	709.240		
2.135	4.980	2.135	721.160		
2.140	7.500	2.140	730.100		
2.145	0.000	2.145	745.000		
2.150	2.490	2.150	752.720		
2.155	4.860	2.155	768.240		
2.160	4.860	2.160	783.760		
2.165	7.380	2.165	795.400		
2.170	7.380	2.175	810.920		
2.175	4.860	2.175	810.920		
2.180	7.380	2.180	826.440		
2.190	0.000	2.185	841.960		
2.190	0.000	2.190	865.240		
2.195	4.860	2.195	884.640		
2.200	4.860	2.200	900.160		
2.205	2.340	2.205	911.800		
2.210	9.900	2.210	931.200		
2.215	22.500	2.215	946.720		
2.220	27.360	2.220	962.240		
2.225	32.400	2.225	970.000		
2.230	45.000	2.230	975.260		
2.235	63.800	2.235	987.350		
2.240	103.400	2.240	991.380		
2.245	184.800	2.245	999.440		
2.250	253.000	2.250	1003.470		
2.255	325.600	2.255	1007.500		
2.260	391.600	2.260	1003.470		
2.265	442.200	2.265	991.380		
2.270	473.000	2.270	991.380		
2.275	473.000	2.275	995.410		
2.280	479.600	2.280	987.350		
2.285	468.600	2.285	979.290		
2.290	477.400	2.290	971.230		
2.295	495.000	2.295	959.140		
2.300	521.400	2.300	951.080		
2.305	550.000	2.305	932.500		
2.310	581.350	2.310	913.850		
2.315	608.300	2.315	884.010		
2.320	646.800	2.320	850.440		
2.325	689.150	2.325	816.870		
2.330	727.650	2.330	757.190		
2.335	773.850	2.335	693.780		
2.340	808.500	2.340	634.100		
2.345	839.300	2.345	581.880		
2.350	866.250	2.350	511.010		
2.355	897.050	2.355	436.410		
2.360	916.300	2.360	354.350		
2.370	935.550	2.370	283.480		
2.370	935.550	2.370	283.480		
2.375	954.800	2.375	227.530		
2.380	954.800	2.380	175.310		
2.385	962.500	2.385	140.000		
2.390	957.500	2.390	109.760		
2.395	949.840	2.395	84.560		
2.400	946.010	2.400	67.200		
2.405	934.520	2.405	57.120		
2.410	919.200	2.410	49.840		
2.415	903.880	2.415	34.720		
2.420	880.900	2.420	34.720		
2.425	861.750	2.425	34.720		
2.430	838.770	2.430	36.960		
2.435	831.110	2.435	27.440		
2.440	811.960	2.440	22.400		
2.445	804.300	2.445	14.560		
2.450	792.810	2.450	19.600		
2.455	781.320	2.455	7.280		
2.460	769.830	2.460	7.500		
2.465	762.500	2.465	2.490		
2.470	750.300	2.470	0.000		
2.475	738.100	2.475	0.000		
2.480	728.950	2.480	0.000		
2.485	713.700	2.485	0.000		
2.490	710.650	2.490	0.000		
2.495	701.500	2.495	0.000		
2.500	692.350	2.500	0.000		
2.505	689.300	2.505	2.490		
2.510	677.100	2.510	0.000		
2.515	671.000	2.515	0.000		
2.520	677.100	2.520	4.980		
2.525	677.100	2.525	0.000		
2.530	667.950	2.530	0.000		
2.535	667.950	2.535	0.000		
2.540	667.440	2.540	0.000		
2.545	677.160	2.545	0.000		
2.555	677.160	2.550	0.000		
2.555	677.160	2.555	0.000		
2.560	686.880	2.560	0.000		
2.565	693.360	2.570	0.000		
2.570	703.080	2.570	0.000		
2.575	709.560	2.575	0.000		
2.580	712.800	2.580	0.000		
2.585	732.240	2.585	0.000		
2.590	738.720	2.590	0.000		
2.595	758.160	2.595	0.000		
2.600	764.640	2.600	2.500		
2.605	774.360	2.605	0.000		
2.610	790.560	2.610	0.000		
2.615	810.000	2.615	0.000		
2.620	818.070	2.620	2.450		
2.625	834.350	2.625	2.450		
2.630	846.560	2.630	4.970		
2.635	866.910	2.635	7.490		
2.640	883.190	2.640	2.450		
2.645	899.470	2.645	7.490		
2.650	911.680	2.650	2.450		
2.655	923.890	2.655	9.940		
2.660	944.240	2.660	9.940		
2.665	952.380	2.665	4.970		
2.670	964.590	2.670	14.980		
2.675	980.870	2.675	14.980		
2.680	993.080	2.680	17.500		
2.685	1005.290	2.685	12.460		
2.690	1017.500	2.690	12.350		
2.695	1026.550	2.695	17.100		
2.700	1034.930	2.700	12.350		
2.705	1039.120	2.705	12.350		
2.710	1039.120	2.710	14.250		
2.715	1047.500	2.715	12.350		
2.720	1047.500	2.720	12.350		
2.725	1047.500	2.725	9.500		
2.735	1039.120	2.730	9.500		
2.735	1039.120	2.735	19.950		
2.740	1034.930	2.740	29.450		
2.745	1026.550	2.745	41.800		
2.750	1001.410	2.750	59.850		
2.755	984.650	2.755	124.450		
2.760	946.940	2.765	237.500		
2.765	896.660	2.765	237.500		
2.770	833.810	2.770	336.420		
2.775	780.000	2.775	434.700		
2.780	702.000	2.780	517.860		
2.785	614.640	2.785	604.800		
2.790	514.800	2.790	650.160		
2.795	427.440	2.795	665.280		
2.800	343.200	2.800	661.500		
2.805	268.320	2.805	657.720		
2.810	218.400	2.810	676.620		
2.815	174.720	2.815	710.640		
2.820	143.520	2.820	756.000		
2.825	115.440	2.825	801.360		
2.830	96.720	2.830	846.720		
2.835	78.000	2.835	892.080		
2.840	62.400	2.840	945.000		
2.845	49.920	2.845	991.200		
2.850	37.500	2.850	1038.400		
2.855	30.000	2.855	1066.720		
2.860	19.950	2.860	1090.320		
2.865	17.400	2.865	1113.920		
2.870	15.000	2.870	1142.240		
2.875	4.950	2.875	1151.680		
2.880	9.900	2.880	1170.560		
2.885	4.950	2.885	1175.280		
2.890	0.000	2.890	1175.280		
2.895	0.000	2.895	1180.000		
2.900	0.000	2.900	1170.560		
2.905	0.000	2.905	1156.400		
2.910	0.000	2.910	1146.960		
2.920	0.000	2.915	1128.080		
2.920	0.000	2.920	1115.000		
2.925	0.000	2.925	1092.700		
2.930	0.000	2.930	1061.480		
2.935	0.000	2.935	1043.640		
2.940	0.000	2.940	1016.880		
2.945	0.000	2.945	990.120		
2.950	0.000	2.950	963.360		
2.955	0.000	2.955	945.520		
2.960	0.000	2.965	918.760		
2.965	0.000	2.965	918.760		
2.970	0.000	2.970	896.460		
2.975	0.000	2.975	874.160		
2.980	2.500	2.980	851.860		
2.985	0.000	2.985	834.020		
2.990	0.000	2.990	811.720		
2.995	0.000	2.995	793.880		
3.000	0.000	3.000	777.500		
3.005	0.000	3.005	761.950		
3.010	2.500	3.010	749.510		
3.015	0.000	3.015	727.740		
3.020	0.000	3.020	718.410		
3.025	5.000	3.025	709.080		
3.030	0.000	3.030	699.750		
3.035	0.000	3.035	693.530		
3.040	0.000	3.040	687.310		
3.045	0.000	3.045	677.980		
3.050	0.000	3.050	674.870		
3.055	0.000	3.055	674.870		
3.060	0.000	3.060	671.760		
3.065	0.000	3.065	671.760		
3.070	2.500	3.070	671.760		
3.075	0.000	3.075	665.700		
3.080	4.970	3.080	672.040		
3.085	9.940	3.085	672.040		
3.090	4.970	3.090	678.380		
3.100	7.490	3.095	684.720		
3.100	7.490	3.100	684.720		
3.105	4.970	3.105	697.400		
3.110	7.490	3.110	703.740		
3.115	4.970	3.115	710.080		
3.120	2.450	3.120	719.590		
3.125	2.450	3.125	732.270		
3.130	9.940	3.130	744.950		
3.135	9.940	3.135	754.460		
3.140	7.490	3.140	776.650		
3.145	17.500	3.145	792.500		
3.150	14.980	3.150	803.880		
3.155	14.980	3.160	824.180		
3.160	9.000	3.160	824.180		
3.165	15.000	3.165	844.480		
3.170	16.500	3.170	860.720		
3.175	15.000	3.175	876.960		
3.180	15.000	3.180	897.260		
3.185	12.000	3.185	909.440		
3.190	19.500	3.190	929.740		
3.195	30.000	3.195	945.980		
3.200	34.500	3.200	954.100		
3.205	49.500	3.205	974.400		
3.210	69.000	3.210	982.520		
3.215	112.500	3.215	994.700		
3.220	187.500	3.220	998.760		
3.225	264.000	3.225	1015.000		
3.230	375.000	3.230	1016.750		
3.235	444.460	3.235	1029.200		
3.240	482.020	3.240	1029.200		
3.245	491.410	3.245	1029.200		
3.250	491.410	3.250	1029.200		
3.255	485.150	3.255	1037.500		
3.260	497.670	3.260	1025.050		
3.265	516.450	3.265	1016.750		
3.270	541.490	3.270	1008.450		
3.275	579.050	3.275	991.850		
3.285	607.220	3.280	966.950		
3.285	607.220	3.285	942.050		
3.290	644.780	3.290	913.000		
3.295	672.950	3.295	867.350		
3.300	716.770	3.300	825.850		
3.305	751.200	3.305	772.500		
3.310	782.500	3.310	695.250		
3.315	803.600	3.315	618.000		
3.320	846.720	3.320	540.750		
3.325	885.920	3.325	466.590		
3.330	909.440	3.330	386.250		
3.335	936.880	3.335	312.090		
3.340	948.640	3.340	247.200		
3.345	964.320	3.345	203.940		
3.350	972.160	3.350	160.680		
3.355	980.000	3.360	129.780		
3.360	976.080	3.360	129.780		
3.365	976.080	3.365	92.700		
3.370	968.240	3.370	77.250		
3.375	952.560	3.375	58.710		
3.380	944.720	3.380	49.440		
3.385	921.200	3.385	42.500		
3.390	907.500	3.390	32.470		
3.395	889.350	3.395	37.400		
3.400	867.570	3.400	32.470		
3.405	849.420	3.405	24.990		
3.410	831.270	3.410	22.440		
3.415	816.750	3.415	12.410		
3.420	794.970	3.420	7.480		
3.425	780.450	3.425	12.410		
3.430	769.560	3.430	4.930		
3.435	751.410	3.435	0.000		
3.440	740.520	3.440	0.000		
3.445	726.000	3.445	0.000		
3.450	711.480	3.450	0.000		
3.455	696.960	3.455	2.380		
3.465	682.440	3.460	0.000		
3.465	682.440	3.465	2.500		
3.470	677.500	3.470	0.000		
3.475	666.660	3.475	5.000		
3.480	658.530	3.480	2.500		
3.485	650.400	3.485	0.000		
3.490	650.400	3.490	0.000		
3.495	644.980	3.495	0.000		
3.500	644.980	3.500	0.000		
3.505	639.560	3.505	2.500		
3.510	644.980	3.510	2.500		
3.515	642.270	3.515	0.000		
3.520	650.400	3.520	2.500		
3.525	650.400	3.525	2.500		
3.530	653.110	3.530	0.000		
3.535	663.950	3.535	0.000		
3.540	663.950	3.540	0.000		
3.545	672.280	3.545	0.000		
3.550	682.570	3.555	0.000		
3.555	689.430	3.555	0.000		
3.560	699.720	3.560	0.000		
3.565	713.440	3.565	0.000		
3.570	727.160	3.570	0.000		
3.575	744.310	3.575	0.000		
3.580	758.030	3.580	0.000		
3.585	778.610	3.585	0.000		
3.590	792.330	3.590	0.000		
3.595	809.480	3.595	0.000		
3.600	819.770	3.600	0.000		
3.605	830.060	3.605	0.000		
3.610	840.350	3.610	5.000		
3.615	857.500	3.615	0.000		
3.620	873.600	3.620	9.940		
3.625	886.080	3.625	4.970		
3.630	902.720	3.630	2.450		
3.635	915.200	3.635	4.970		
3.640	927.680	3.640	7.490		
3.650	940.160	3.645	0.000		
3.650	940.160	3.650	12.460		
3.655	956.800	3.655	17.500		
3.660	969.280	3.660	9.940		
3.665	973.440	3.665	9.940		
3.670	994.240	3.670	17.500		
3.675	1002.560	3.675	9.940		
3.680	1010.880	3.680	14.980		
3.685	1019.200	3.685	12.460		
3.690	1023.360	3.690	12.250		
3.695	1040.000	3.695	8.750		
3.700	1039.120	3.700	12.250		
3.705	1043.310	3.705	8.750		
3.710	1047.500	3.710	14.000		
3.715	1047.500	3.715	21.000		
3.720	1043.310	3.720	38.500		
3.725	1034.930	3.725	42.000		
3.730	1022.360	3.730	38.500		
3.735	1018.170	3.735	77.000		
3.740	997.220	3.740	152.250		
3.745	976.270	3.745	227.500		
3.750	934.370	3.755	288.750		
3.755	900.850	3.755	288.750		
3.760	858.950	3.760	358.750		
3.765	791.910	3.765	437.500		
3.770	733.250	3.770	504.350		
3.775	655.000	3.775	573.650		
3.780	576.400	3.780	608.300		
3.785	482.080	3.785	612.150		
3.790	395.620	3.790	631.400		
3.795	317.020	3.795	666.050		
3.800	246.280	3.800	708.400		
3.805	201.740	3.805	754.600		
3.810	162.440	3.810	789.250		
3.815	125.760	3.815	816.200		
3.820	107.420	3.820	843.150		
3.830	83.840	3.825	870.100		
3.830	83.840	3.830	916.300		
3.835	65.500	3.835	939.400		
3.840	55.020	3.840	962.500		
3.845	49.780	3.845	978.600		
3.850	36.680	3.850	1003.800		
3.855	32.500	3.855	1016.400		
3.860	29.900	3.860	1020.600		
3.865	24.960	3.865	1029.000		
3.870	24.960	3.870	1037.400		
3.875	14.950	3.875	1050.000		
3.880	12.480	3.880	1041.600		
3.885	4.940	3.885	1041.600		
3.890	4.940	3.890	1033.200		
3.895	7.410	3.895	1020.600		
3.900	4.940	3.900	1012.200		
3.905	2.470	3.905	995.400		
3.910	7.410	3.910	978.600		
3.915	0.000	3.915	957.600		
3.920	2.470	3.920	937.500		
3.925	0.000	3.925	907.500		
3.930	0.000	3.930	892.500		
3.935	0.000	3.935	873.750		
3.940	0.000	3.940	847.500		
3.945	2.500	3.945	832.500		
3.950	0.000	3.955	810.000		
3.955	0.000	3.955	810.000		
3.960	0.000	3.960	791.250		
3.965	2.500	3.965	772.500		
3.970	0.000	3.970	750.000		
3.975	0.000	3.975	735.000		
3.980	0.000	3.980	716.250		
3.985	0.000	3.985	708.750		
3.990	0.000	3.990	690.000		
3.995	0.000	3.995	686.250		
4.000	5.000	4.000	670.000		
4.005	0.000	4.005	661.960		
4.015	2.500	4.010	653.920		
4.015	2.500	4.015	643.200		
4.020	0.000	4.020	637.840		
4.025	0.000	4.025	635.160		
4.030	0.000	4.030	640.520		
4.035	0.000	4.035	632.480		
4.040	5.000	4.040	632.480		
4.045	2.500	4.045	637.840		
4.050	0.000	4.050	635.160		
4.055	0.000	4.055	645.880		
4.060	0.000	4.060	653.920		
4.065	5.000	4.065	659.280		
4.070	2.500	4.070	661.960		
4.075	0.000	4.075	663.920		
4.080	2.500	4.080	677.680		
4.085	2.480	4.085	688.000		
4.090	5.000	4.090	701.760		
4.095	7.480	4.095	712.080		
4.100	2.480	4.100	725.840		
4.105	7.480	4.105	736.160		
4.110	2.480	4.110	753.360		
4.115	5.000	4.115	756.800		
4.120	2.480	4.120	777.440		
4.125	5.000	4.125	787.760		
4.130	10.000	4.130	804.960		
4.135	5.000	4.135	822.160		
4.140	5.000	4.140	842.800		
4.145	10.000	4.150	860.000		
4.150	10.000	4.150	860.000		
4.155	7.480	4.155	878.620		
4.160	11.760	4.160	894.380		
4.165	8.400	4.165	906.200		
4.170	8.400	4.170	921.960		
4.175	13.440	4.175	941.660		
4.180	16.800	4.180	957.420		
4.185	18.480	4.185	969.240		
4.195	33.600	4.190	969.240		
4.195	33.600	4.195	973.180		
4.200	47.040	4.200	981.060		
4.205	67.200	4.205	981.060		
4.210	115.920	4.210	977.120		
4.215	189.840	4.215	985.000		
4.220	268.800	4.220	981.060		
4.225	339.360	4.225	977.120		
4.230	391.440	4.230	970.000		
4.235	420.000	4.235	970.000		
4.240	427.050	4.240	966.120		
4.245	441.650	4.245	958.360		
4.250	448.950	4.250	946.720		
4.255	474.500	4.255	938.960		
4.260	511.000	4.260	923.440		
4.265	562.100	4.265	900.160		
4.270	602.250	4.270	884.640		
4.275	642.400	4.275	861.360		
4.280	682.550	4.280	826.440		
4.285	726.350	4.285	783.760		
4.290	766.500	4.290	737.200		
4.295	806.650	4.295	675.120		
4.300	846.800	4.300	601.400		
4.305	876.000	4.305	540.000		
4.310	912.500	4.310	464.400		
4.315	938.900	4.315	384.480		
4.320	959.400	4.320	313.200		
4.325	979.900	4.325	246.240		
4.330	996.300	4.330	196.560		
4.335	1008.600	4.335	153.360		
4.340	1012.700	4.340	127.440		
4.345	1025.000	4.350	99.360		
4.350	1016.800	4.350	99.360		
4.355	1008.600	4.355	79.920		
4.360	1008.600	4.360	60.480		
4.365	1000.400	4.365	49.680		
4.370	984.000	4.370	43.200		
4.380	967.600	4.375	36.720		
4.380	967.600	4.380	34.560		
4.385	959.400	4.385	30.000		
4.390	930.700	4.390	30.000		
4.395	917.500	4.395	22.440		
4.400	899.150	4.400	15.000		
4.405	880.800	4.405	19.920		
4.410	862.450	4.410	15.000		
4.415	844.100	4.415	4.920		
4.420	822.080	4.420	2.400		
4.425	807.400	4.425	0.000		
4.430	785.380	4.430	4.920		
4.435	763.360	4.435	0.000		
4.440	745.010	4.440	0.000		
4.445	726.660	4.445	0.000		
4.450	711.980	4.450	0.000		
4.455	697.300	4.455	0.000		
4.460	671.610	4.460	0.000		
4.465	664.270	4.465	0.000		
4.470	655.000	4.470	0.000		
4.475	636.660	4.475	0.000		
4.480	623.560	4.480	0.000		
4.485	615.700	4.485	0.000		
4.490	602.600	4.490	2.500		
4.495	599.980	4.495	0.000		
4.500	597.360	4.500	0.000		
4.505	599.980	4.505	0.000		
4.510	594.740	4.510	0.000		
4.515	594.740	4.515	0.000		
4.520	592.120	4.520	2.500		
4.525	597.360	4.525	0.000		
4.530	599.980	4.530	2.500		
4.535	607.840	4.535	0.000		
4.540	610.460	4.545	0.000		
4.545	621.300	4.545	0.000		
4.550	624.570	4.550	0.000		
4.560	637.650	4.555	0.000		
4.560	637.650	4.560	0.000		
4.565	650.730	4.565	0.000		
4.570	667.080	4.570	2.500		
4.575	676.890	4.575	0.000		
4.580	689.970	4.580	0.000		
4.585	703.050	4.585	0.000		
4.590	712.860	4.590	0.000		
4.595	732.480	4.595	0.000		
4.600	745.560	4.600	0.000		
4.605	765.180	4.605	5.000		
4.610	784.800	4.610	2.500		
4.615	794.610	4.615	2.500		
4.620	817.500	4.620	2.500		
4.625	828.920	4.625	5.000		
4.630	844.560	4.630	2.500		
4.635	860.200	4.635	7.500		
4.640	879.750	4.640	12.500		
4.645	891.480	4.645	10.000		
4.650	907.120	4.650	12.500		
4.655	918.850	4.655	12.500		
4.660	934.490	4.660	10.000		
4.665	946.220	4.665	5.000		
4.670	954.040	4.670	7.500		
4.675	961.860	4.675	10.000		
4.680	969.680	4.680	7.500		
4.685	969.680	4.685	2.500		
4.690	969.680	4.690	7.200		
4.695	977.500	4.695	7.200		
4.700	977.500	4.700	2.400		
4.705	965.770	4.705	14.400		
4.710	965.770	4.710	24.000		
4.715	961.860	4.715	36.000		
4.720	946.220	4.720	64.800		
4.725	922.760	4.725	139.200		
4.730	895.390	4.730	223.200		
4.735	856.290	4.735	307.200		
4.745	813.280	4.745	398.400		
4.745	813.280	4.745	398.400		
4.750	754.630	4.750	489.600		
4.755	692.070	4.755	559.200		
4.760	613.870	4.760	592.800		
4.765	527.850	4.765	600.000		
4.770	441.830	4.770	596.640		
4.775	363.630	4.775	623.760		
4.780	287.500	4.780	668.960		
4.785	224.250	4.785	718.680		
4.790	187.450	4.790	763.880		
4.795	154.100	4.795	804.560		
4.800	119.600	4.800	836.200		
4.805	98.900	4.805	885.920		
4.810	79.350	4.810	944.680		
4.815	57.500	4.815	994.400		
4.820	39.100	4.820	1026.040		
4.825	36.800	4.825	1057.680		
4.830	26.450	4.830	1084.800		
4.835	24.150	4.835	1107.400		
4.840	14.950	4.840	1130.000		
4.845	14.950	4.845	1141.920		
4.850	6.900	4.850	1155.960		
4.855	5.000	4.855	1165.320		
4.860	0.000	4.860	1170.000		
4.865	0.000	4.865	1165.320		
4.870	0.000	4.870	1165.320		
4.875	0.000	4.875	1155.960		
4.880	0.000	4.880	1151.280		
4.885	0.000	4.885	1127.880		
4.890	0.000	4.890	1113.840		
4.895	0.000	4.895	1090.440		
4.900	0.000	4.900	1067.040		
4.905	0.000	4.905	1043.640		
4.910	0.000	4.910	1015.560		
4.915	5.000	4.915	1001.520		
4.925	2.500	4.920	972.500		
4.925	2.500	4.925	945.270		
4.930	0.000	4.930	918.040		
4.935	0.000	4.940	894.700		
4.940	0.000	4.940	894.700		
4.945	2.480	4.945	871.360		
4.950	0.000	4.950	844.130		
4.955	0.000	4.955	824.680		
4.960	0.000	4.960	801.340		
4.965	0.000	4.965	789.670		
4.970	2.480	4.970	766.330		
4.975	0.000	4.975	754.660		
4.980	7.480	4.980	731.320		
4.985	7.480	4.985	719.650		
4.990	2.480	4.990	707.980		
4.995	5.000	4.995	696.310		
5.000	10.000	5.000	687.280		
5.005	2.480	5.005	684.440		
5.010	2.490	5.010	675.920		
5.015	7.500	5.015	667.400		
5.020	2.490	5.020	667.400		
5.025	4.980	5.025	670.240		
5.030	7.500	5.030	670.240		
5.035	7.500	5.035	670.240		
5.040	7.500	5.040	670.240		
5.045	2.490	5.045	675.920		
5.050	0.000	5.050	681.600		
5.055	2.490	5.055	684.440		
5.060	7.500	5.060	687.280		
5.065	2.490	5.065	698.640		
5.070	4.980	5.070	710.000		
5.075	4.980	5.075	720.070		
5.080	4.980	5.080	731.380		
5.085	7.500	5.085	742.690		
5.090	7.500	5.090	754.000		
5.095	7.500	5.095	769.080		
5.100	7.500	5.100	784.160		
5.110	10.000	5.105	795.470		
5.110	10.000	5.110	814.320		
5.115	5.000	5.115	836.940		
5.120	10.000	5.120	852.020		
5.125	12.500	5.125	870.870		
5.130	10.000	5.130	885.950		
5.135	7.500	5.140	904.800		
5.140	7.500	5.140	904.800		
5.145	12.500	5.145	923.650		
5.150	10.000	5.150	942.500		
5.155	7.500	5.155	963.560		
5.160	12.500	5.160	981.000		
5.165	9.420	5.165	994.080		
5.170	9.420	5.170	1007.160		
5.175	23.550	5.175	1024.600		
5.180	29.830	5.180	1033.320		
5.185	39.250	5.185	1046.400		
5.190	43.960	5.190	1059.480		
5.195	56.520	5.195	1068.200		
5.200	97.340	5.200	1068.200		
5.205	139.730	5.205	1076.920		
5.210	183.690	5.210	1085.640		
5.215	226.080	5.215	1090.000		
5.220	266.900	5.220	1090.000		
5.225	306.150	5.225	1085.640		
5.230	351.680	5.230	1085.000		
5.235	392.500	5.235	1080.660		
5.240	420.510	5.240	1063.300		
5.245	428.370	5.245	1054.620		
5.250	444.090	5.250	1028.580		
5.255	463.740	5.255	1006.880		
5.260	503.040	5.260	972.160		
5.265	546.270	5.265	937.440		
5.270	593.430	5.270	889.700		
5.275	644.520	5.275	841.960		
5.280	699.540	5.280	781.200		
5.290	754.560	5.285	711.760		
5.290	754.560	5.290	633.640		
5.295	817.440	5.295	551.180		
5.300	868.530	5.300	468.720		
5.305	915.690	5.305	387.500		
5.310	947.130	5.310	310.000		
5.315	982.500	5.315	257.300		
5.320	1010.880	5.320	206.150		
5.325	1036.800	5.325	155.000		
5.330	1058.400	5.335	124.000		
5.335	1071.360	5.335	124.000		
5.340	1075.680	5.340	94.550		
5.345	1080.000	5.345	74.400		
5.350	1075.680	5.350	58.900		
5.355	1062.720	5.355	46.500		
5.360	1058.400	5.360	38.750		
5.365	1045.440	5.365	31.000		
5.370	1028.160	5.370	24.800		
5.375	1010.880	5.375	24.800		
5.380	993.600	5.380	18.600		
5.385	972.000	5.385	15.000		
5.390	954.720	5.390	9.960		
5.395	940.000	5.395	2.460		
5.400	913.680	5.400	2.460		
5.405	894.880	5.405	4.980		
5.410	872.320	5.410	0.000		
5.415	849.760	5.415	0.000		
5.420	834.720	5.420	0.000		
5.425	812.160	5.425	0.000		
5.430	793.360	5.430	4.980		
5.435	774.560	5.435	2.460		
5.440	759.520	5.440	2.460		
5.445	744.480	5.445	0.000		
5.450	721.920	5.450	0.000		
5.455	710.640	5.455	2.460		
5.460	699.360	5.460	0.000		
5.465	691.840	5.465	0.000		
5.475	681.600	5.470	0.000		
5.475	681.600	5.475	0.000		
5.480	678.760	5.480	0.000		
5.485	670.240	5.485	0.000		
5.490	670.240	5.490	0.000		
5.495	667.400	5.495	0.000		
5.500	658.880	5.500	2.500		
5.505	664.560	5.505	0.000		
5.510	658.880	5.510	5.000		
5.515	670.240	5.515	0.000		
5.520	667.400	5.520	0.000		
5.525	675.920	5.525	0.000		
5.530	684.440	5.535	2.500		
5.535	687.280	5.535	2.500		
5.540	695.800	5.540	0.000		
5.545	710.000	5.545	0.000		
5.550	706.860	5.550	0.000		
5.555	725.560	5.555	0.000		
5.560	736.780	5.560	0.000		
5.565	748.000	5.565	0.000		
5.570	766.700	5.570	2.500		
5.575	777.920	5.575	0.000		
5.580	792.880	5.580	0.000		
5.585	811.580	5.585	5.000		
5.590	834.020	5.590	2.500		
5.595	841.500	5.595	0.000		
5.600	863.940	5.600	0.000		
5.605	878.900	5.605	2.500		
5.610	897.600	5.610	5.000		
5.615	916.300	5.615	7.500		
5.620	935.000	5.620	7.500		
5.625	952.450	5.625	7.500		
5.630	965.740	5.630	10.000		
5.635	983.460	5.635	12.500		
5.640	996.750	5.640	10.000		
5.645	1010.040	5.645	10.000		
5.655	1032.190	5.650	7.500		
5.655	1032.190	5.655	7.500		
5.660	1041.050	5.660	10.000		
5.665	1049.910	5.665	10.000		
5.670	1067.630	5.670	10.000		
5.675	1076.490	5.675	7.500		
5.680	1089.780	5.680	5.000		
5.685	1094.210	5.685	12.500		
5.690	1098.640	5.690	10.950		
5.695	1103.070	5.695	10.950		
5.700	1107.500	5.700	21.900		
5.705	1097.500	5.705	30.660		
5.710	1088.720	5.710	45.990		
5.715	1084.330	5.715	102.930		
5.720	1062.380	5.720	162.060		
5.725	1040.430	5.730	208.050		
5.730	1014.090	5.730	208.050		
5.735	974.580	5.735	267.180		
5.740	921.900	5.740	324.120		
5.745	869.220	5.745	400.770		
5.750	794.590	5.750	468.660		
5.755	706.790	5.755	521.220		
5.760	623.380	5.760	538.740		
5.765	526.800	5.765	547.500		
5.770	434.610	5.770	565.740		
5.775	342.420	5.775	615.130		
5.780	272.500	5.780	664.520		
5.785	222.360	5.785	718.400		
5.790	182.030	5.790	763.300		
5.795	154.780	5.795	803.710		
5.800	116.630	5.800	848.610		
5.805	91.560	5.805	902.490		
5.810	71.940	5.810	938.410		
5.815	54.500	5.815	974.330		
5.820	44.690	5.820	1001.270		
5.825	39.240	5.825	1037.190		
5.830	39.240	5.830	1068.620		
5.840	31.610	5.835	1095.560		
5.840	31.610	5.840	1122.500		
5.845	29.430	5.845	1135.260		
5.850	23.980	5.850	1154.340		
5.855	19.620	5.855	1168.650		
5.860	15.000	5.860	1173.420		
5.865	9.960	5.865	1187.730		
5.870	2.460	5.870	1187.730		
5.875	0.000	5.875	1192.500		
5.880	0.000	5.880	1178.190		
5.885	0.000	5.885	1178.190		
5.890	2.460	5.890	1163.880		
5.895	0.000	5.895	1154.340		
5.900	0.000	5.900	1140.030		
5.905	0.000	5.905	1120.950		
5.910	0.000	5.910	1101.870		
5.915	0.000	5.915	1078.020		
5.920	2.460	5.920	1060.000		
5.925	0.000	5.930	1034.560		
5.930	0.000	5.930	1034.560		
5.935	0.000	5.935	1009.120		
5.940	0.000	5.940	987.920		
5.945	0.000	5.945	958.240		
5.950	0.000	5.950	941.280		
5.955	0.000	5.955	911.600		
5.960	0.000	5.960	886.160		
5.965	2.500	5.965	856.480		
5.970	2.500	5.970	831.040		
5.975	0.000	5.975	809.840		
5.980	2.500	5.980	788.640		
5.985	0.000	5.985	771.680		
5.990	2.500	5.990	746.240		
5.995	0.000	5.995	733.520		
6.000	0.000	6.000	720.000		
6.005	0.000	6.005	705.600		
6.010	0.000	6.010	694.080		
6.020	2.480	6.015	679.680		
6.020	2.480	6.020	671.040		
6.025	7.480	6.025	662.400		
6.030	5.000	6.030	650.880		
6.035	7.480	6.035	648.000		
6.040	7.480	6.040	648.000		
6.045	7.480	6.045	642.240		
6.050	7.480	6.050	642.240		
6.055	10.000	6.055	642.240		
6.060	2.480	6.060	642.240		
6.065	7.480	6.065	653.760		
6.070	7.480	6.070	645.120		
6.075	10.000	6.075	649.650		
6.080	10.000	6.080	660.300		
6.085	7.480	6.085	667.400		
6.090	2.480	6.090	674.500		
6.095	4.960	6.095	692.250		
6.100	2.480	6.100	710.000		
6.105	7.440	6.105	724.200		
6.110	12.480	6.110	741.950		
6.115	4.960	6.115	752.600		
6.120	12.480	6.120	770.350		
6.125	10.000	6.130	791.650		
6.130	10.000	6.130	791.650		
6.135	14.960	6.135	816.500		
6.140	17.440	6.140	841.350		
6.145	20.000	6.145	862.650		
6.150	14.960	6.150	887.500		
6.155	12.480	6.155	906.880		
6.160	17.440	6.160	928.680		
6.165	11.480	6.165	954.840		
6.170	14.760	6.170	967.920		
6.175	19.680	6.175	994.080		
6.180	26.240	6.180	998.440		
6.185	39.360	6.185	1011.520		
6.190	57.400	6.190	1028.960		
6.195	68.880	6.195	1042.040		
6.205	88.560	6.200	1050.760		
6.205	88.560	6.205	1063.840		
6.210	129.560	6.210	1068.200		
6.215	177.120	6.215	1081.280		
6.220	224.680	6.220	1085.640		
6.225	264.040	6.225	1090.000		
6.230	306.680	6.230	1090.000		
6.235	359.160	6.235	1081.280		
6.240	410.000	6.240	1072.560		
6.245	468.700	6.245	1063.840		
6.250	516.000	6.250	1050.760		
6.255	541.800	6.255	1033.320		
6.260	546.100	6.260	1007.160		
6.265	554.700	6.265	976.640		
6.270	567.600	6.270	941.760		
6.275	606.300	6.275	889.440		
6.280	662.200	6.280	824.040		
6.285	713.800	6.285	767.360		
6.290	769.700	6.290	688.880		
6.295	829.900	6.295	606.040		
6.300	894.400	6.300	514.480		
6.305	954.600	6.305	405.000		
6.310	1023.400	6.310	304.560		
6.315	1075.000	6.315	244.620		
6.320	1121.000	6.325	194.400		
6.325	1149.500	6.325	194.400		
6.330	1163.750	6.330	153.900		
6.335	1187.500	6.335	119.880		
6.340	1187.500	6.340	92.340		
6.345	1178.000	6.345	74.520		
6.350	1168.500	6.350	66.420		
6.355	1154.250	6.355	51.840		
6.360	1130.500	6.360	51.840		
6.365	1102.000	6.365	46.980		
6.370	1073.500	6.370	43.740		
6.375	1035.500	6.375	38.880		
6.385	1007.000	6.380	38.880		
6.385	1007.000	6.385	35.000		
6.390	969.000	6.390	32.480		
6.395	935.750	6.395	24.920		
6.400	910.000	6.400	22.400		
6.405	873.600	6.405	22.400		
6.410	844.480	6.410	9.940		
6.415	819.000	6.415	17.500		
6.420	789.880	6.420	12.460		
6.425	768.040	6.425	4.900		
6.430	749.840	6.430	2.380		
6.435	724.360	6.435	0.000		
6.440	702.520	6.440	4.900		
6.445	687.960	6.445	2.380		
6.450	669.760	6.450	0.000		
6.455	662.480	6.455	2.380		
6.460	644.280	6.460	0.000		
6.465	629.720	6.465	2.500		
6.470	626.080	6.470	0.000		
6.475	620.100	6.475	2.500		
6.480	617.450	6.480	0.000		
6.485	606.850	6.485	0.000		
6.490	601.550	6.490	0.000		
6.495	604.200	6.495	0.000		
6.500	601.550	6.500	0.000		
6.505	606.850	6.505	0.000		
6.510	606.850	6.510	0.000		
6.515	606.850	6.515	2.500		
6.520	614.800	6.525	0.000		
6.525	620.100	6.525	0.000		
6.530	622.750	6.530	5.000		
6.535	638.650	6.535	0.000		
6.540	646.600	6.540	0.000		
6.545	662.500	6.545	0.000		
6.550	672.000	6.550	0.000		
6.555	687.360	6.555	0.000		
6.560	706.560	6.560	0.000		
6.570	729.600	6.565	0.000		
6.570	729.600	6.570	0.000		
6.575	744.960	6.575	0.000		
6.580	768.000	6.580	0.000		
6.585	794.880	6.585	0.000		
6.590	814.080	6.590	0.000		
6.595	833.280	6.595	0.000		
6.600	860.160	6.600	0.000		
6.605	879.360	6.605	0.000		
6.610	898.560	6.610	0.000		
6.615	921.600	6.615	0.000		
6.620	944.640	6.620	2.480		
6.625	960.000	6.625	0.000		
6.630	984.400	6.630	7.480		
6.635	1002.800	6.635	5.000		
6.640	1016.600	6.640	5.000		
6.645	1039.600	6.645	5.000		
6.650	1053.400	6.650	5.000		
6.655	1076.400	6.655	7.480		
6.660	1090.200	6.660	10.000		
6.665	1108.600	6.665	7.480		
6.670	1122.400	6.670	7.480		
6.675	1131.600	6.675	5.000		
6.680	1140.800	6.680	10.000		
6.685	1145.400	6.685	7.480		
6.690	1150.000	6.690	4.560		
6.695	1150.000	6.695	13.680		
6.700	1140.800	6.700	20.520		
6.705	1130.000	6.705	34.200		
6.710	1111.920	6.710	61.560		
6.715	1089.320	6.720	109.440		
6.720	1048.640	6.720	109.440		
6.725	1003.440	6.725	168.720		
6.730	940.160	6.730	228.000		
6.735	876.880	6.735	294.120		
6.740	772.920	6.740	367.080		
6.750	641.840	6.745	433.200		
6.750	641.840	6.750	487.920		
6.755	546.920	6.755	528.960		
6.760	447.480	6.760	549.480		
6.765	361.600	6.765	570.000		
6.770	284.760	6.770	612.540		
6.775	226.000	6.775	662.340		
6.780	180.800	6.780	722.100		
6.785	150.000	6.785	786.840		
6.790	120.000	6.790	846.600		
6.795	87.000	6.795	901.380		
6.800	72.000	6.800	956.160		
6.805	45.000	6.805	1000.980		
6.810	42.000	6.810	1050.780		
6.815	32.400	6.815	1085.640		
6.820	27.000	6.820	1130.460		
6.825	22.200	6.825	1160.340		
6.830	22.200	6.830	1195.200		
6.835	9.600	6.835	1220.100		
6.840	9.600	6.840	1245.000		
6.845	0.000	6.845	1259.520		
6.850	4.800	6.850	1269.760		
6.855	2.400	6.855	1274.880		
6.860	0.000	6.860	1280.000		
6.865	0.000	6.865	1269.760		
6.870	0.000	6.870	1269.760		
6.875	2.500	6.875	1259.520		
6.880	0.000	6.880	1244.160		
6.885	2.500	6.885	1228.800		
6.890	5.000	6.890	1208.320		
6.895	0.000	6.895	1177.600		
6.900	2.500	6.900	1157.120		
6.905	0.000	6.905	1121.280		
6.910	0.000	6.910	1090.560		
6.915	0.000	6.920	1059.840		
6.920	2.500	6.920	1059.840		
6.925	0.000	6.925	1030.000		
6.935	0.000	6.930	1001.160		
6.935	0.000	6.935	976.440		
6.940	0.000	6.940	943.480		
6.945	2.500	6.945	914.640		
6.950	0.000	6.950	881.680		
6.955	5.000	6.955	848.720		
6.960	0.000	6.960	824.000		
6.965	0.000	6.965	799.280		
6.970	0.000	6.970	770.440		
6.975	0.000	6.975	753.960		
6.980	0.000	6.980	729.240		
6.985	5.000	6.985	704.520		
6.990	0.000	6.990	683.920		
6.995	0.000	6.995	671.560		
7.000	0.000	7.000	652.500		
7.005	2.500	7.005	639.450		
7.010	2.500	7.010	629.010		
7.015	4.980	7.015	618.570		
7.020	4.980	7.020	608.130		
7.025	4.980	7.025	602.910		
7.030	4.980	7.030	592.470		
7.035	0.000	7.035	587.250		
7.040	0.000	7.040	587.250		
7.045	2.490	7.045	584.640		
7.050	2.490	7.050	579.420		
7.055	0.000	7.055	582.030		
7.060	0.000	7.060	582.030		
7.065	2.490	7.065	587.250		
7.070	2.490	7.070	595.080		
7.075	2.490	7.075	602.870		
7.080	7.500	7.080	613.700		
7.085	0.000	7.085	624.530		
7.090	2.500	7.090	635.360		
7.095	5.000	7.095	653.410		
7.100	2.500	7.100	667.850		
7.105	2.500	7.105	682.290		
7.115	2.500	7.115	707.560		
7.115	2.500	7.115	707.560		
7.120	0.000	7.120	729.220		
7.125	2.500	7.125	761.710		
7.130	7.500	7.130	786.980		
7.135	10.000	7.135	819.470		
7.140	2.500	7.140	844.740		
7.145	7.500	7.145	870.010		
7.150	10.000	7.150	902.500		
7.155	12.500	7.155	929.060		
7.160	10.000	7.160	956.120		
7.165	12.500	7.165	978.670		
7.170	17.010	7.170	1001.220		
7.175	17.010	7.175	1023.770		
7.180	11.340	7.180	1037.300		
7.185	26.460	7.185	1050.830		
7.190	49.140	7.190	1068.870		
7.195	66.150	7.195	1086.910		
7.200	94.500	7.200	1104.950		
7.205	143.640	7.205	1109.460		
7.210	202.230	7.210	1113.970		
7.215	251.370	7.215	1127.500		
7.220	294.840	7.220	1122.990		
7.225	334.530	7.225	1122.990		
7.230	368.550	7.230	1120.000		
7.235	423.360	7.235	1106.560		
7.240	472.500	7.240	1088.640		
7.245	522.000	7.245	1066.240		
7.250	556.800	7.250	1039.360		
7.255	578.550	7.255	999.040		
7.260	600.300	7.260	949.760		
7.265	626.400	7.265	891.520		
7.270	674.250	7.270	828.800		
7.275	722.100	7.275	761.600		
7.280	769.950	7.280	672.000		
7.285	813.450	7.285	564.480		
7.290	861.300	7.290	443.520		
7.300	904.800	7.295	353.920		
7.300	904.800	7.300	273.280		
7.305	961.350	7.305	217.500		
7.310	1013.550	7.315	174.870		
7.315	1048.350	7.315	174.870		
7.320	1087.500	7.320	139.200		
7.325	1100.790	7.325	107.010		
7.330	1118.910	7.330	77.430		
7.335	1132.500	7.335	61.770		
7.340	1127.970	7.340	52.200		
7.345	1123.440	7.345	44.370		
7.350	1105.320	7.350	34.800		
7.355	1078.140	7.355	37.410		
7.360	1064.550	7.360	34.800		
7.365	1028.310	7.365	32.190		
7.370	987.540	7.370	26.970		
7.375	955.830	7.375	21.750		
7.380	919.590	7.380	17.400		
7.385	874.290	7.385	12.500		
7.390	838.050	7.390	7.500		
7.395	801.810	7.395	2.500		
7.400	777.500	7.400	0.000		
7.405	740.180	7.405	0.000		
7.410	718.410	7.410	0.000		
7.415	690.420	7.415	0.000		
7.420	662.430	7.420	0.000		
7.425	640.660	7.425	0.000		
7.430	618.890	7.430	0.000		
7.435	597.120	7.435	2.500		
7.440	584.680	7.440	0.000		
7.445	559.800	7.445	0.000		
7.450	547.360	7.450	0.000		
7.455	528.700	7.455	0.000		
7.460	522.480	7.460	0.000		
7.465	506.930	7.465	0.000		
7.470	494.490	7.470	0.000		
7.480	486.140	7.475	0.000		
7.480	486.140	7.480	0.000		
7.485	488.370	7.485	0.000		
7.490	479.450	7.490	0.000		
7.495	481.680	7.495	4.980		
7.500	479.450	7.500	0.000		
7.505	479.450	7.510	0.000		
7.510	483.910	7.510	0.000		
7.515	486.140	7.515	7.500		
7.520	488.370	7.520	2.490		
7.525	499.520	7.525	2.490		
7.530	506.210	7.530	4.980		
7.535	519.590	7.535	2.490		
7.540	530.740	7.540	2.480		
7.545	541.890	7.545	0.000		
7.550	557.500	7.550	2.480		
7.555	570.840	7.555	0.000		
7.560	598.980	7.560	0.000		
7.565	627.120	7.565	0.000		
7.570	655.260	7.570	0.000		
7.575	683.400	7.575	0.000		
7.580	719.580	7.580	2.480		
7.585	743.700	7.585	0.000		
7.590	775.860	7.590	2.480		
7.595	812.040	7.595	5.000		
7.600	844.200	7.600	10.000		
7.605	884.400	7.605	5.000		
7.610	908.520	7.610	7.480		
7.615	936.660	7.615	4.960		
7.620	968.820	7.620	7.360		
7.625	1005.000	7.625	12.480		
7.630	1036.300	7.630	9.920		
7.635	1060.400	7.635	9.920		
7.640	1094.140	7.640	12.480		
7.645	1113.420	7.645	7.360		
7.650	1137.520	7.650	9.920		
7.655	1151.980	7.655	9.920		
7.665	1171.260	7.660	7.360		
7.665	1171.260	7.665	9.920		
7.670	1185.720	7.670	12.480		
7.675	1195.360	7.675	24.960		
7.680	1205.000	7.680	29.920		
7.685	1195.360	7.685	40.000		
7.690	1190.540	7.690	64.050		
7.695	1180.900	7.695	122.000		
7.700	1161.620	7.700	192.150		
7.705	1132.700	7.710	256.200		
7.710	1102.500	7.710	256.200		
7.715	1040.760	7.715	311.100		
7.720	979.020	7.720	359.900		
7.725	899.640	7.725	427.000		
7.730	780.570	7.730	463.600		
7.735	635.040	7.735	497.150		
7.740	520.380	7.740	515.450		
7.745	410.130	7.745	549.000		
7.750	317.520	7.750	597.800		
7.755	242.550	7.755	652.700		
7.760	194.040	7.760	713.700		
7.765	149.940	7.765	762.500		
7.770	123.480	7.770	810.900		
7.775	92.610	7.775	858.600		
7.780	61.740	7.780	906.300		
7.785	52.500	7.785	954.000		
7.790	39.900	7.790	996.930		
7.795	34.860	7.795	1044.630		
7.800	32.340	7.800	1068.480		
7.805	22.470	7.805	1106.640		
7.810	17.430	7.810	1130.490		
7.815	14.910	7.815	1154.340		
7.820	12.390	7.820	1168.650		
7.825	7.350	7.825	1178.190		
7.830	0.000	7.830	1187.730		
7.835	2.310	7.835	1192.500		
7.845	0.000	7.840	1192.500		
7.845	0.000	7.845	1182.500		
7.850	0.000	7.850	1168.310		
7.855	4.830	7.855	1158.850		
7.860	2.310	7.860	1139.930		
7.865	0.000	7.865	1125.740		
7.870	2.480	7.870	1097.360		
7.875	0.000	7.875	1064.250		
7.880	0.000	7.880	1045.330		
7.885	0.000	7.885	1002.760		
7.890	2.480	7.890	969.650		
7.895	0.000	7.895	936.540		
7.900	0.000	7.900	903.430		
7.905	0.000	7.910	870.320		
7.910	0.000	7.910	870.320		
7.915	0.000	7.915	837.210		
7.920	2.480	7.920	813.560		
7.925	10.000	7.925	782.500		
7.930	5.000	7.930	760.590		
7.935	0.000	7.935	723.030		
7.940	0.000	7.940	701.120		
7.945	2.500	7.945	682.340		
7.950	0.000	7.950	660.430		
7.955	0.000	7.955	644.780		
7.960	0.000	7.960	622.870		
7.965	0.000	7.965	607.220		
7.970	0.000	7.970	594.700		
7.975	0.000	7.975	588.440		
7.980	0.000	7.980	582.180		
7.985	0.000	7.985	569.660		
7.990	2.500	7.990	569.660		
7.995	0.000	7.995	563.400		
8.000	0.000	8.000	569.400		
8.005	2.500	8.005	572.320		
8.010	0.000	8.010	572.320		
8.015	5.000	8.015	578.160		
8.020	0.000	8.020	584.000		
8.030	0.000	8.025	589.840		
8.030	0.000	8.030	592.760		
8.035	0.000	8.035	607.360		
8.040	0.000	8.040	621.960		
8.045	0.000	8.045	633.640		
8.050	0.000	8.050	651.160		
8.055	0.000	8.055	665.760		
8.060	0.000	8.060	692.040		
8.065	0.000	8.065	706.640		
8.070	2.500	8.070	730.000		
8.075	0.000	8.075	752.400		
8.080	2.500	8.080	775.200		
8.085	0.000	8.085	807.120		
8.090	2.500	8.090	825.360		
8.095	7.000	8.095	857.280		
8.100	2.100	8.105	884.640		
8.105	9.800	8.105	884.640		
8.110	9.800	8.110	912.000		
8.115	9.800	8.115	948.480		
8.120	14.700	8.120	975.840		
8.125	9.800	8.125	1007.760		
8.130	9.800	8.130	1026.000		
8.135	14.700	8.135	1062.480		
8.140	14.700	8.140	1089.840		
8.145	22.400	8.145	1117.200		
8.150	35.000	8.150	1140.000		
8.155	57.400	8.155	1156.560		
8.160	114.800	8.160	1176.080		
8.165	175.000	8.165	1185.840		
8.170	220.800	8.170	1200.480		
8.175	258.750	8.175	1205.360		
8.180	289.800	8.180	1220.000		
8.185	324.300	8.185	1220.000		
8.190	372.600	8.190	1210.240		
8.195	427.800	8.195	1200.480		
8.200	479.550	8.200	1190.720		
8.210	520.950	8.205	1166.320		
8.210	520.950	8.210	1137.040		
8.215	548.550	8.215	1102.880		
8.220	589.950	8.220	1063.840		
8.225	638.250	8.225	1000.400		
8.230	690.000	8.230	940.000		
8.235	752.100	8.235	868.560		
8.240	803.850	8.240	778.320		
8.245	862.500	8.245	684.320		
8.250	911.020	8.250	579.040		
8.255	951.610	8.255	473.760		
8.260	992.200	8.260	379.760		
8.265	1028.280	8.265	308.320		
8.270	1050.830	8.270	236.880		
8.275	1077.890	8.275	184.240		
8.280	1095.930	8.280	135.360		
8.285	1113.970	8.285	101.520		
8.290	1127.500	8.290	78.960		
8.295	1122.990	8.295	56.400		
8.300	1122.990	8.305	48.880		
8.305	1127.500	8.305	48.880		
8.310	1113.970	8.310	40.000		
8.315	1095.930	8.315	34.880		
8.320	1073.380	8.320	40.000		
8.325	1050.000	8.325	34.880		
8.330	1012.200	8.330	32.480		
8.335	982.800	8.335	22.400		
8.340	953.400	8.340	17.440		
8.345	924.000	8.345	17.440		
8.350	890.400	8.350	14.880		
8.355	861.000	8.355	9.920		
8.360	831.600	8.360	4.960		
8.365	802.200	8.365	0.000		
8.370	772.800	8.370	0.000		
8.375	735.000	8.375	0.000		
8.380	714.000	8.380	0.000		
8.385	688.800	8.385	0.000		
8.395	663.600	8.390	0.000		
8.395	663.600	8.395	0.000		
8.400	638.400	8.400	0.000		
8.405	627.500	8.405	0.000		
8.410	612.440	8.410	0.000		
8.415	599.890	8.415	0.000		
8.420	587.340	8.420	0.000		
8.425	574.790	8.425	0.000		
8.430	567.260	8.430	2.500		
8.435	562.240	8.435	2.500		
8.440	557.220	8.440	0.000		
8.445	554.710	8.445	0.000		
8.450	544.670	8.450	0.000		
8.455	547.180	8.455	0.000		
8.460	552.200	8.460	0.000		
8.465	552.200	8.465	0.000		
8.470	552.200	8.470	0.000		
8.475	554.710	8.475	0.000		
8.480	560.520	8.480	2.500		
8.485	567.000	8.485	0.000		
8.490	573.480	8.490	0.000		
8.495	586.440	8.500	2.500		
8.500	592.920	8.500	2.500		
8.505	605.880	8.505	0.000		
8.510	622.080	8.510	2.500		
8.515	641.520	8.515	0.000		
8.520	654.480	8.520	5.000		
8.525	670.680	8.525	0.000		
8.530	696.600	8.530	0.000		
8.535	719.280	8.535	0.000		
8.540	751.680	8.540	0.000		
8.545	777.600	8.545	0.000		
8.550	810.000	8.550	0.000		
8.555	831.480	8.555	0.000		
8.560	861.000	8.560	0.000		
8.565	890.520	8.565	0.000		
8.575	929.880	8.570	0.000		
8.575	929.880	8.575	0.000		
8.580	959.400	8.580	0.000		
8.585	984.000	8.585	0.000		
8.590	1018.440	8.590	5.000		
8.595	1047.960	8.595	10.000		
8.600	1077.480	8.600	7.480		
8.605	1107.000	8.605	7.480		
8.610	1131.600	8.610	5.000		
8.615	1151.280	8.615	7.140		
8.620	1180.800	8.620	9.520		
8.625	1200.480	8.625	4.760		
8.630	1230.000	8.630	7.140		
8.635	1246.300	8.635	9.520		
8.640	1266.900	8.640	4.760		
8.645	1266.900	8.645	4.760		
8.650	1272.050	8.650	9.520		
8.655	1287.500	8.655	14.280		
8.660	1282.350	8.660	27.370		
8.665	1282.350	8.665	41.650		
8.670	1266.900	8.670	79.730		
8.675	1256.600	8.675	152.320		
8.680	1230.850	8.680	229.670		
8.685	1199.950	8.685	297.500		
8.690	1169.050	8.690	356.960		
8.695	1117.550	8.700	404.800		
8.700	1071.200	8.700	404.800		
8.705	993.950	8.705	452.640		
8.710	915.000	8.710	482.080		
8.715	801.540	8.715	511.520		
8.720	666.120	8.720	537.280		
8.725	549.000	8.725	566.720		
8.730	450.180	8.730	599.840		
8.735	355.020	8.735	647.680		
8.740	281.820	8.740	699.200		
8.745	226.920	8.745	747.040		
8.750	186.660	8.750	798.560		
8.760	146.400	8.755	839.040		
8.760	146.400	8.760	879.520		
8.765	109.800	8.765	920.000		
8.770	87.840	8.770	968.490		
8.775	65.880	8.775	996.030		
8.780	43.920	8.780	1023.570		
8.785	36.600	8.785	1064.880		
8.790	30.000	8.790	1092.420		
8.795	22.440	8.795	1110.780		
8.800	17.400	8.800	1129.140		
8.805	15.000	8.805	1133.730		
8.810	7.440	8.810	1142.910		
8.815	12.480	8.815	1147.500		
8.820	7.440	8.820	1147.500		
8.825	2.400	8.825	1147.500		
8.830	4.920	8.830	1138.320		
8.835	2.400	8.835	1133.730		
8.840	0.000	8.840	1115.370		
8.845	0.000	8.845	1107.500		
8.850	0.000	8.850	1080.920		
8.855	0.000	8.855	1063.200		
8.860	0.000	8.860	1036.620		
8.865	0.000	8.865	1018.900		
8.870	2.490	8.870	983.460		
8.875	0.000	8.875	956.880		
8.880	2.490	8.880	930.300		
8.885	2.490	8.885	903.720		
8.890	0.000	8.895	877.140		
8.895	0.000	8.895	877.140		
8.900	0.000	8.900	850.560		
8.905	0.000	8.905	823.980		
8.910	0.000	8.910	806.260		
8.915	7.500	8.915	775.250		
8.920	4.980	8.920	753.100		
8.925	7.500	8.925	735.000		
8.930	4.980	8.930	717.360		
8.940	2.490	8.935	693.840		
8.940	2.490	8.940	676.200		
8.945	5.000	8.945	661.500		
8.950	2.500	8.950	646.800		
8.955	5.000	8.955	632.100		
8.960	2.500	8.960	620.340		
8.965	2.500	8.965	608.580		
8.970	5.000	8.970	596.820		
8.975	0.000	8.975	590.940		
8.980	0.000	8.980	588.000		
8.985	2.500	8.985	582.120		
8.990	0.000	8.990	576.240		
8.995	0.000	8.995	573.300		
9.000	0.000	9.000	569.140		
9.005	2.500	9.005	569.140		
9.010	0.000	9.010	572.000		
9.015	0.000	9.015	569.140		
9.020	0.000	9.020	574.860		
9.025	0.000	9.025	577.720		
9.030	0.000	9.030	589.160		
9.035	0.000	9.035	597.740		
9.040	0.000	9.040	612.040		
9.045	0.000	9.045	614.900		
9.050	0.000	9.050	634.920		
9.055	2.490	9.055	652.080		
9.060	0.000	9.060	669.240		
9.065	0.000	9.065	692.120		
9.070	2.490	9.070	715.000		
9.075	4.980	9.075	728.460		
9.080	2.490	9.080	762.540		
9.085	2.490	9.085	783.840		
9.090	7.500	9.095	813.660		
9.095	0.000	9.095	813.660		
9.100	2.340	9.100	839.220		
9.105	0.000	9.105	864.780		
9.110	7.410	9.110	894.600		
9.115	9.750	9.115	924.420		
9.125	7.410	9.120	945.720		
9.125	7.410	9.125	975.540		
9.130	9.750	9.130	996.840		
9.135	7.410	9.135	1018.140		
9.140	9.750	9.140	1035.180		
9.145	14.820	9.145	1043.700		
9.150	34.710	9.150	1065.000		
9.155	42.120	9.155	1076.040		
9.160	44.850	9.160	1084.860		
9.165	64.740	9.165	1093.680		
9.170	97.500	9.170	1089.270		
9.175	137.800	9.175	1102.500		
9.180	174.900	9.180	1102.500		
9.185	204.050	9.185	1102.500		
9.190	222.600	9.190	1098.090		
9.195	259.700	9.195	1102.500		
9.200	302.100	9.200	1093.680		
9.205	360.400	9.205	1089.270		
9.210	413.400	9.210	1071.630		
9.215	455.800	9.215	1049.580		
9.220	477.000	9.220	1027.530		
9.225	500.850	9.225	1005.480		
9.230	524.700	9.230	975.000		
9.235	569.750	9.235	928.200		
9.240	617.450	9.240	889.200		
9.245	662.500	9.245	826.800		
9.250	702.100	9.250	768.300		
9.255	735.140	9.255	702.000		
9.260	776.440	9.260	624.000		
9.265	817.740	9.265	542.100		
9.270	854.910	9.270	452.400		
9.275	892.080	9.275	374.400		
9.280	908.600	9.280	292.500		
9.285	941.640	9.290	234.000		
9.290	966.420	9.290	234.000		
9.295	987.070	9.295	195.000		
9.305	1011.850	9.300	152.100		
9.305	1011.850	9.305	113.100		
9.310	1015.980	9.310	90.000		
9.315	1028.370	9.315	72.360		
9.320	1032.500	9.320	59.760		
9.325	1028.370	9.325	54.720		
9.330	1022.500	9.330	49.680		
9.335	1014.320	9.335	39.960		
9.340	997.960	9.340	39.960		
9.345	989.780	9.345	37.440		
9.350	969.330	9.350	39.960		
9.355	936.610	9.355	29.880		
9.360	916.160	9.360	29.880		
9.365	891.620	9.365	27.360		
9.370	871.170	9.370	27.360		
9.375	846.630	9.375	17.280		
9.380	822.090	9.380	14.760		
9.385	793.460	9.385	12.500		
9.390	777.100	9.390	2.500		
9.395	756.650	9.395	5.000		
9.400	723.930	9.400	2.500		
9.405	697.500	9.405	5.000		
9.410	675.180	9.410	0.000		
9.415	652.860	9.415	0.000		
9.420	636.120	9.420	0.000		
9.425	622.170	9.425	0.000		
9.430	599.850	9.430	0.000		
9.435	585.900	9.435	0.000		
9.440	574.740	9.440	0.000		
9.445	566.370	9.445	2.500		
9.450	552.420	9.450	2.500		
9.455	549.630	9.455	2.500		
9.460	544.050	9.460	0.000		
9.465	538.470	9.465	0.000		
9.470	538.470	9.470	2.500		
9.475	538.470	9.475	0.000		
9.480	542.440	9.480	0.000		
9.490	542.440	9.490	0.000		
9.490	542.440	9.490	0.000		
9.495	542.440	9.495	0.000		
9.500	559.480	9.500	2.500		
9.505	562.320	9.505	2.500		
9.510	568.000	9.510	2.500		
9.515	576.520	9.515	2.500		
9.520	590.720	9.520	0.000		
9.525	596.400	9.525	0.000		
9.530	613.440	9.530	0.000		
9.535	630.480	9.535	0.000		
9.540	647.520	9.540	0.000		
9.545	667.400	9.545	0.000		
9.550	687.280	9.550	0.000		
9.555	710.000	9.555	0.000		
9.560	734.440	9.560	0.000		
9.565	755.790	9.565	0.000		
9.570	781.410	9.570	0.000		
9.575	811.300	9.575	2.490		
9.580	832.650	9.580	0.000		
9.585	862.540	9.585	0.000		
9.590	883.890	9.590	0.000		
9.595	913.780	9.595	2.490		
9.600	930.860	9.600	0.000		
9.605	960.750	9.605	4.980		
9.610	977.830	9.610	7.500		
9.615	1003.450	9.615	3.900		
9.620	1029.070	9.620	3.900		
9.625	1046.150	9.625	6.500		
9.630	1067.500	9.630	9.100		
9.635	1074.060	9.635	1.300		
9.640	1092.420	9.640	3.900		
9.645	1106.190	9.645	0.000		
9.650	1119.960	9.650	0.000		
9.655	1129.140	9.655	3.900		
9.660	1133.730	9.660	14.300		
9.670	1138.320	9.665	33.800		
9.670	1138.320	9.670	52.000		
9.675	1142.910	9.675	89.700		
9.680	1142.910	9.685	206.700		
9.685	1147.500	9.685	206.700		
9.690	1133.730	9.690	325.000		
9.695	1124.550	9.695	374.660		
9.700	1101.600	9.700	397.540		
9.705	1074.060	9.705	397.540		
9.710	1037.340	9.710	394.680		
9.715	992.500	9.715	383.240		
9.720	921.040	9.720	380.380		
9.725	849.580	9.725	386.100		
9.730	750.330	9.730	400.400		
9.735	647.110	9.735	423.280		
9.740	531.980	9.740	460.460		
9.745	424.790	9.745	514.800		
9.750	329.510	9.750	557.700		
9.755	254.080	9.755	614.900		
9.760	202.470	9.760	663.520		
9.765	166.740	9.765	715.000		
9.770	142.920	9.770	776.020		
9.775	107.190	9.775	838.680		
9.780	87.340	9.780	882.060		
9.785	71.460	9.785	920.620		
9.790	55.000	9.790	959.180		
9.795	49.940	9.795	997.740		
9.800	42.460	9.800	1036.300		
9.805	32.340	9.805	1070.040		
9.810	27.500	9.810	1098.960		
9.815	29.920	9.815	1123.060		
9.820	27.500	9.820	1151.980		
9.825	27.500	9.825	1171.260		
9.830	17.380	9.830	1185.720		
9.835	12.320	9.835	1190.540		
9.840	14.960	9.840	1205.000		
9.845	9.900	9.845	1202.500		
9.855	9.900	9.850	1202.500		
9.855	9.900	9.855	1197.690		
9.860	4.840	9.860	1188.070		
9.865	4.840	9.865	1173.640		
9.870	5.000	9.870	1164.020		
9.875	5.000	9.875	1149.590		
9.880	0.000	9.885	1130.350		
9.885	2.500	9.885	1130.350		
9.890	2.500	9.890	1115.920		
9.895	5.000	9.895	1091.870		
9.900	2.500	9.900	1067.820		
9.905	0.000	9.905	1043.770		
9.910	0.000	9.910	1024.530		
9.915	2.500	9.915	995.670		
9.920	0.000	9.920	966.810		
9.925	5.000	9.925	947.500		
9.930	2.500	9.930	924.760		
9.935	0.000	9.935	894.440		
9.940	2.500	9.940	864.120		
9.945	0.000	9.945	837.590		
9.950	0.000	9.950	818.640		
9.955	0.000	9.955	792.110		
9.960	0.000	9.960	769.370		
9.965	0.000	9.965	761.790		
9.970	0.000	9.970	739.050		
9.975	0.000	9.975	727.680		
9.980	0.000	9.980	708.730		
9.985	0.000	9.985	697.360		
9.990	0.000	9.990	682.200		
9.995	0.000	9.995	663.250		
10.000	2.500	10.000	659.640		
10.005	0.000	10.005	651.360		
10.010	5.000	10.010	643.080		
10.015	0.000	10.015	634.800		
10.020	0.000	10.020	634.800		
10.025	2.500	10.025	629.280		
10.035	0.000	10.030	632.040		
10.035	0.000	10.035	637.560		
10.040	0.000	10.040	643.080		
10.045	2.500	10.045	640.320		
10.050	0.000	10.050	645.840		
10.055	0.000	10.055	654.120		
10.060	0.000	10.060	665.160		
10.065	0.000	10.065	676.200		
10.070	0.000	10.070	690.000		
10.075	0.000	10.075	696.960		
10.080	0.000	10.085	708.840		
10.085	2.500	10.085	708.840		
10.090	0.000	10.090	732.600		
10.095	2.500	10.095	752.400		
10.100	4.950	10.100	772.200		
10.105	0.000	10.105	788.040		
10.110	9.900	10.110	811.800		
10.115	2.250	10.115	839.520		
10.120	4.950	10.120	859.320		
10.125	9.900	10.125	883.080		
10.130	9.900	10.130	906.840		
10.135	12.150	10.135	930.600		
10.140	9.900	10.140	954.360		
10.145	9.900	10.145	970.200		
10.150	27.450	10.150	990.000		
10.155	47.250	10.155	1004.850		
10.160	69.750	10.160	1022.250		
10.165	90.000	10.165	1030.950		
10.170	112.500	10.170	1052.700		
10.175	164.920	10.175	1061.400		
10.180	231.420	10.180	1074.450		
10.185	292.600	10.185	1078.800		
10.190	343.140	10.190	1078.800		
10.195	383.040	10.195	1078.800		
10.200	404.320	10.200	1087.500		
10.205	422.940	10.205	1078.800		
10.210	441.560	10.210	1065.750		
10.220	462.840	10.215	1044.000		
10.220	462.840	10.220	1022.250		
10.225	473.480	10.225	996.150		
10.230	486.780	10.230	960.000		
10.235	516.040	10.235	913.920		
10.240	569.240	10.240	856.320		
10.245	614.460	10.245	794.880		
10.250	665.000	10.250	725.760		
10.255	699.200	10.255	641.280		
10.260	749.800	10.260	556.800		
10.265	805.000	10.265	468.480		
10.270	869.400	10.270	384.000		
10.275	915.400	10.280	299.520		
10.280	966.000	10.280	299.520		
10.285	1012.000	10.285	230.400		
10.290	1048.800	10.290	172.800		
10.295	1085.600	10.295	142.080		
10.300	1113.200	10.300	111.360		
10.305	1136.200	10.305	84.480		
10.310	1150.000	10.310	67.500		
10.315	1150.000	10.315	54.810		
10.320	1145.400	10.320	39.960		
10.325	1131.600	10.325	34.830		
10.330	1117.500	10.330	29.970		
10.335	1090.680	10.335	24.840		
10.340	1063.860	10.340	22.410		
10.345	1028.100	10.345	17.280		
10.350	996.810	10.350	12.420		
10.355	961.050	10.355	9.990		
10.360	929.760	10.360	7.290		
10.365	894.000	10.365	0.000		
10.370	867.180	10.370	2.430		
10.375	835.890	10.375	0.000		
10.380	804.600	10.380	0.000		
10.385	759.900	10.385	0.000		
10.390	733.080	10.390	0.000		
10.400	710.730	10.395	0.000		
10.400	710.730	10.400	0.000		
10.405	683.910	10.405	0.000		
10.410	662.500	10.410	0.000		
10.415	641.300	10.415	0.000		
10.420	625.400	10.420	0.000		
10.425	612.150	10.425	0.000		
10.430	593.600	10.430	0.000		
10.435	583.000	10.435	0.000		
10.440	575.050	10.440	0.000		
10.445	569.750	10.445	2.500		
10.450	561.800	10.450	0.000		
10.455	553.850	10.455	0.000		
10.460	551.200	10.460	0.000		
10.465	543.250	10.465	0.000		
10.470	545.900	10.470	0.000		
10.475	556.500	10.480	0.000		
10.480	553.850	10.480	0.000		
10.485	557.920	10.485	0.000		
10.490	564.260	10.490	0.000		
10.495	573.770	10.495	0.000		
10.500	576.940	10.500	0.000		
10.505	589.620	10.505	0.000		
10.510	602.300	10.510	0.000		
10.515	618.150	10.515	2.500		
10.520	637.170	10.520	0.000		
10.525	659.360	10.525	0.000		
10.530	681.550	10.530	0.000		
10.535	697.400	10.535	0.000		
10.540	713.250	10.540	0.000		
10.545	744.950	10.545	0.000		
10.550	763.970	10.550	0.000		
10.555	792.500	10.555	0.000		
10.560	808.860	10.560	0.000		
10.565	830.960	10.565	0.000		
10.570	857.480	10.570	0.000		
10.575	888.420	10.575	2.490		
10.585	901.680	10.580	0.000		
10.585	901.680	10.585	0.000		
10.590	928.200	10.590	4.980		
10.595	950.300	10.595	0.000		
10.600	976.820	10.600	4.980		
10.605	994.500	10.605	7.500		
10.610	1016.600	10.610	4.980		
10.615	1034.280	10.615	7.220		
10.620	1056.380	10.620	7.220		
10.625	1069.640	10.625	12.160		
10.630	1091.740	10.630	7.220		
10.635	1105.000	10.635	7.220		
10.640	1111.010	10.640	7.220		
10.645	1129.450	10.645	7.220		
10.650	1143.280	10.650	9.880		
10.655	1143.280	10.655	4.940		
10.660	1152.500	10.660	4.940		
10.665	1138.670	10.665	7.220		
10.670	1134.060	10.675	17.480		
10.675	1129.450	10.675	17.480		
10.680	1115.620	10.680	32.300		
10.685	1092.570	10.685	49.780		
10.690	1055.690	10.690	95.000		
10.695	1018.810	10.695	164.000		
10.700	968.100	10.700	252.000		
10.705	903.560	10.705	356.000		
10.710	834.410	10.710	480.000		
10.715	747.500	10.715	620.000		
10.720	648.830	10.720	708.000		
10.725	538.200	10.725	744.000		
10.730	415.610	10.730	752.000		
10.735	334.880	10.735	760.000		
10.740	266.110	10.740	784.000		
10.745	209.300	10.745	824.000		
10.750	164.450	10.750	872.000		
10.755	140.530	10.755	920.000		
10.765	107.640	10.760	960.000		
10.765	107.640	10.765	1000.000		
10.770	89.700	10.770	1039.350		
10.775	62.790	10.775	1090.050		
10.780	53.820	10.780	1120.470		
10.785	35.880	10.785	1150.890		
10.790	29.900	10.790	1171.170		
10.795	20.000	10.795	1196.520		
10.800	25.000	10.800	1221.870		
10.805	17.500	10.805	1237.080		
10.810	15.000	10.810	1252.290		
10.815	10.000	10.815	1257.360		
10.820	10.000	10.820	1267.500		
10.825	2.500	10.825	1257.360		
10.830	0.000	10.830	1252.290		
10.835	2.500	10.835	1232.010		
10.840	0.000	10.840	1206.660		
10.845	0.000	10.845	1192.500		
10.850	0.000	10.850	1163.880		
10.855	0.000	10.855	1135.260		
10.860	0.000	10.860	1106.640		
10.865	2.500	10.865	1078.020		
10.870	0.000	10.875	1044.630		
10.875	0.000	10.875	1044.630		
10.880	5.000	10.880	1011.240		
10.885	0.000	10.885	973.080		
10.890	0.000	10.890	939.690		
10.895	0.000	10.895	911.070		
10.900	0.000	10.900	877.680		
10.905	5.000	10.905	849.060		
10.910	2.500	10.910	815.670		
10.915	5.000	10.915	791.820		
10.920	2.500	10.920	763.200		
10.925	5.000	10.925	737.500		
10.930	2.500	10.930	710.950		
10.935	0.000	10.935	690.300		
10.940	0.000	10.940	669.650		
10.950	5.000	10.945	651.950		
10.950	5.000	10.950	637.200		
10.955	0.000	10.955	622.450		
10.960	2.500	10.960	610.650		
10.965	0.000	10.965	601.800		
10.970	0.000	10.970	598.850		
10.975	0.000	10.975	587.050		
10.980	2.500	10.980	584.100		
10.985	0.000	10.985	578.200		
10.990	0.000	10.990	578.200		
10.995	0.000	10.995	572.300		
11.000	0.000	11.000	574.910		
11.005	0.000	11.005	577.920		
11.010	0.000	11.010	577.920		
11.015	0.000	11.015	586.950		
11.020	0.000	11.020	595.980		
11.025	0.000	11.025	602.000		
11.030	5.000	11.030	611.030		
11.035	0.000	11.035	626.080		
11.040	2.500	11.040	644.140		
11.045	0.000	11.045	659.190		
11.050	5.000	11.050	671.230		
11.055	2.500	11.055	692.300		
11.060	0.000	11.060	707.350		
11.065	0.000	11.070	728.420		
11.070	5.000	11.070	728.420		
11.075	7.500	11.075	752.500		
11.080	5.000	11.080	774.680		
11.085	10.000	11.085	796.080		
11.090	5.000	11.090	826.040		
11.095	12.500	11.095	851.720		
11.100	9.380	11.100	885.960		
11.105	9.380	11.105	911.640		
11.110	12.060	11.110	928.760		
11.115	9.380	11.115	954.440		
11.120	12.060	11.120	971.560		
11.130	18.760	11.125	992.960		
11.130	18.760	11.130	1014.360		
11.135	24.120	11.135	1022.920		
11.140	38.860	11.140	1044.320		
11.145	49.580	11.145	1052.880		
11.150	64.320	11.150	1070.000		
11.155	87.100	11.155	1071.160		
11.160	144.720	11.160	1079.940		
11.165	214.400	11.165	1088.720		
11.170	277.380	11.170	1088.720		
11.175	335.000	11.175	1093.110		
11.180	395.430	11.180	1097.500		
11.185	470.750	11.185	1088.720		
11.190	535.310	11.190	1079.940		
11.195	564.900	11.195	1062.380		
11.200	556.830	11.200	1053.600		
11.205	497.650	11.205	1027.260		
11.210	454.610	11.210	996.530		
11.215	435.780	11.215	961.410		
11.220	443.850	11.220	908.730		
11.225	470.750	11.225	860.440		
11.230	503.030	11.230	795.000		
11.235	538.000	11.235	721.860		
11.240	572.970	11.240	642.360		
11.245	618.700	11.245	556.500		
11.250	672.500	11.250	470.640		
11.255	737.550	11.255	381.600		
11.260	795.660	11.260	286.200		
11.265	853.770	11.270	213.060		
11.270	907.410	11.270	213.060		
11.275	952.110	11.275	168.540		
11.280	1001.280	11.280	136.740		
11.285	1045.980	11.285	104.940		
11.290	1077.270	11.290	79.500		
11.295	1090.680	11.295	60.420		
11.300	1108.560	11.300	54.060		
11.305	1108.560	11.305	41.340		
11.315	1117.500	11.310	34.950		
11.315	1117.500	11.315	37.500		
11.320	1104.090	11.320	37.500		
11.325	1090.680	11.325	32.400		
11.330	1068.330	11.330	27.450		
11.335	1055.000	11.335	19.950		
11.340	1033.900	11.340	17.400		
11.345	1004.360	11.345	15.000		
11.350	979.040	11.350	12.450		
11.355	962.160	11.355	4.950		
11.360	936.840	11.360	4.950		
11.365	919.960	11.365	0.000		
11.370	894.640	11.370	0.000		
11.375	869.320	11.375	0.000		
11.380	852.440	11.380	0.000		
11.385	839.780	11.385	0.000		
11.390	814.460	11.390	0.000		
11.395	801.800	11.395	0.000		
11.400	780.700	11.400	0.000		
11.405	759.600	11.405	0.000		
11.410	747.500	11.410	0.000		
11.415	726.570	11.415	0.000		
11.420	711.620	11.420	0.000		
11.425	699.660	11.425	0.000		
11.430	684.710	11.430	0.000		
11.435	669.760	11.435	0.000		
11.440	663.780	11.440	2.500		
11.445	651.820	11.445	2.500		
11.450	648.830	11.450	0.000		
11.455	642.850	11.455	2.500		
11.460	633.880	11.465	0.000		
11.465	639.860	11.465	0.000		
11.470	627.900	11.470	0.000		
11.475	633.880	11.475	0.000		
11.480	633.880	11.480	0.000		
11.485	634.810	11.485	0.000		
11.495	638.000	11.490	0.000		
11.495	638.000	11.495	0.000		
11.500	647.570	11.500	0.000		
11.505	653.950	11.505	0.000		
11.510	660.330	11.510	5.000		
11.515	673.090	11.515	0.000		
11.520	676.280	11.520	0.000		
11.525	692.230	11.525	0.000		
11.530	704.990	11.530	0.000		
11.535	714.560	11.535	0.000		
11.540	727.320	11.540	0.000		
11.545	746.460	11.545	0.000		
11.550	771.980	11.550	0.000		
11.555	778.360	11.555	4.980		
11.560	797.500	11.560	0.000		
11.565	815.900	11.565	0.000		
11.570	831.820	11.570	0.000		
11.575	851.720	11.575	4.980		
11.580	867.640	11.580	7.500		
11.585	879.580	11.585	4.980		
11.590	891.520	11.590	9.960		
11.595	907.440	11.595	4.980		
11.600	923.360	11.600	12.480		
11.605	935.300	11.605	7.500		
11.610	951.220	11.610	15.000		
11.615	959.180	11.615	11.340		
11.620	971.120	11.620	14.580		
11.625	979.080	11.625	14.580		
11.630	979.080	11.630	9.720		
11.635	995.000	11.635	9.720		
11.640	1000.000	11.640	9.720		
11.645	1000.000	11.645	16.200		
11.650	996.000	11.650	37.260		
11.655	996.000	11.655	51.840		
11.660	988.000	11.665	71.280		
11.665	980.000	11.665	71.280		
11.670	960.000	11.670	119.880		
11.680	944.000	11.675	184.680		
11.680	944.000	11.680	244.620		
11.685	912.000	11.685	315.900		
11.690	872.000	11.690	405.000		
11.695	824.000	11.695	523.040		
11.700	772.000	11.700	658.470		
11.705	708.000	11.705	747.200		
11.710	640.000	11.710	793.900		
11.715	552.000	11.715	831.260		
11.720	455.000	11.720	849.940		
11.725	371.280	11.725	882.630		
11.730	298.480	11.730	910.650		
11.735	236.600	11.735	938.670		
11.740	183.820	11.740	971.360		
11.745	154.700	11.745	1008.720		
11.750	129.220	11.750	1050.750		
11.755	98.280	11.755	1092.780		
11.760	87.360	11.760	1139.480		
11.765	67.340	11.765	1167.500		
11.770	58.240	11.770	1194.720		
11.775	54.600	11.775	1231.400		
11.780	49.140	11.780	1257.600		
11.785	47.320	11.785	1278.560		
11.790	30.940	11.790	1289.040		
11.795	0.000	11.795	1304.760		
11.800	0.000	11.800	1310.000		
11.805	0.000	11.805	1310.000		
11.810	0.000	11.810	1299.520		
11.815	0.000	11.815	1289.040		
11.820	0.000	11.820	1268.080		
11.825	0.000	11.825	1252.360		
11.830	0.000	11.830	1226.160		
11.835	0.000	11.835	1210.440		
11.840	0.000	11.840	1173.760		
11.845	0.000	11.845	0.000		
11.850	0.000	11.850	0.000		
11.855	0.000	11.855	0.000		
11.860	0.000	11.860	0.000		

