loadapp_2024_03_18_12_54_30_664.loadflux
comment 10 sec treadmill new app
	P1V477-L		P1V450-R		
Time[secs]	Force[N]	Time[secs]	Force[N]	
0.000	1089.000	0.000	20.700		
0.005	1102.500	0.005	16.560		
0.010	1107.000	0.010	24.840		
0.015	1107.000	0.015	33.120		
0.020	1116.000	0.020	43.470		
0.025	1120.500	0.025	66.240		
0.030	1125.000	0.030	99.360		
0.035	1125.000	0.035	132.480		
0.040	1116.000	0.040	165.600		
0.045	1116.000	0.045	207.000		
0.050	1111.500	0.050	256.680		
0.055	1093.500	0.055	314.640		
0.060	1084.500	0.060	376.740		
0.065	1075.500	0.065	447.120		
0.070	1053.000	0.070	517.500		
0.075	1032.500	0.075	567.220		
0.080	999.460	0.080	606.710		
0.085	974.680	0.085	646.200		
0.090	933.380	0.090	671.330		
0.095	887.950	0.095	700.050		
0.100	838.390	0.100	732.360		
0.105	784.700	0.105	753.900		
0.110	718.620	0.110	775.440		
0.115	636.020	0.115	789.800		
0.120	536.900	0.125	814.930		
0.125	466.690	0.125	814.930		
0.135	392.350	0.130	832.880		
0.135	392.350	0.135	850.830		
0.140	322.140	0.140	865.190		
0.145	260.190	0.145	879.550		
0.150	214.760	0.150	897.500		
0.155	177.500	0.155	909.130		
0.160	149.810	0.160	921.040		
0.165	124.960	0.165	936.920		
0.170	104.370	0.170	948.830		
0.175	87.330	0.175	964.710		
0.180	72.420	0.180	976.620		
0.185	56.800	0.185	984.560		
0.190	51.830	0.190	992.500		
0.195	46.860	0.195	992.500		
0.200	41.890	0.200	992.500		
0.205	39.760	0.205	984.560		
0.210	39.760	0.210	976.620		
0.215	39.760	0.215	964.710		
0.220	36.920	0.220	956.770		
0.225	31.950	0.225	940.890		
0.230	32.480	0.230	927.500		
0.235	35.000	0.235	908.950		
0.240	29.960	0.240	894.110		
0.245	24.920	0.245	879.270		
0.250	24.920	0.255	864.430		
0.255	19.880	0.255	864.430		
0.260	14.980	0.260	849.590		
0.265	9.940	0.265	838.460		
0.275	14.980	0.270	827.330		
0.275	14.980	0.275	816.200		
0.280	14.980	0.280	808.780		
0.285	12.460	0.285	801.360		
0.290	9.940	0.290	790.230		
0.295	12.460	0.295	779.100		
0.300	4.900	0.300	775.390		
0.305	9.940	0.305	771.680		
0.310	7.480	0.310	772.440		
0.315	5.000	0.315	763.020		
0.320	7.480	0.320	759.880		
0.325	10.000	0.325	759.880		
0.330	10.000	0.330	759.880		
0.335	2.480	0.335	759.880		
0.340	5.000	0.340	759.880		
0.345	2.480	0.345	759.880		
0.350	7.480	0.350	759.880		
0.355	5.000	0.355	763.020		
0.360	2.480	0.360	759.880		
0.365	7.480	0.365	772.440		
0.370	0.000	0.370	769.300		
0.375	5.000	0.375	778.720		
0.380	5.000	0.385	785.000		
0.385	2.500	0.385	785.000		
0.390	2.500	0.390	784.160		
0.395	0.000	0.395	791.700		
0.400	2.500	0.400	803.010		
0.410	2.500	0.405	803.010		
0.410	2.500	0.410	818.090		
0.415	5.000	0.415	825.630		
0.420	2.500	0.420	836.940		
0.425	5.000	0.425	852.020		
0.430	2.500	0.430	859.560		
0.435	5.000	0.435	874.640		
0.440	5.000	0.440	885.950		
0.445	0.000	0.445	901.030		
0.450	2.500	0.450	912.340		
0.455	2.500	0.455	927.420		
0.460	2.500	0.460	942.500		
0.465	0.000	0.465	948.290		
0.470	0.000	0.470	961.400		
0.475	2.500	0.475	970.140		
0.480	5.000	0.480	983.250		
0.485	2.500	0.485	991.990		
0.490	5.000	0.490	1000.730		
0.495	5.000	0.495	1013.840		
0.500	10.000	0.500	1031.320		
0.505	0.000	0.510	1035.690		
0.510	7.500	0.510	1035.690		
0.515	7.500	0.515	1044.430		
0.520	5.000	0.520	1053.170		
0.525	12.500	0.525	1061.910		
0.530	12.500	0.530	1070.650		
0.535	7.500	0.535	1083.760		
0.540	4.770	0.540	1092.500		
0.550	14.840	0.545	1104.540		
0.550	14.840	0.550	1104.540		
0.555	17.490	0.555	1113.520		
0.560	14.840	0.560	1122.500		
0.565	14.840	0.565	1122.500		
0.570	12.190	0.570	1122.500		
0.575	14.840	0.575	1122.500		
0.580	12.190	0.580	1118.010		
0.585	17.490	0.585	1113.520		
0.590	19.610	0.590	1109.030		
0.595	34.980	0.595	1095.560		
0.600	44.520	0.600	1077.600		
0.605	69.960	0.605	1068.620		
0.610	104.940	0.610	1050.660		
0.615	132.500	0.615	1019.230		
0.620	167.400	0.620	982.500		
0.625	205.200	0.625	939.270		
0.630	234.900	0.630	896.040		
0.635	280.800	0.640	844.950		
0.640	337.500	0.640	844.950		
0.645	380.700	0.645	789.930		
0.650	432.000	0.650	730.980		
0.655	469.800	0.655	660.240		
0.660	507.600	0.660	589.500		
0.665	548.100	0.665	518.760		
0.670	572.400	0.670	436.230		
0.675	599.400	0.675	369.420		
0.680	623.700	0.680	294.750		
0.690	650.700	0.685	251.520		
0.690	650.700	0.690	204.360		
0.695	675.000	0.695	168.990		
0.700	689.130	0.700	140.000		
0.705	721.370	0.705	112.000		
0.710	753.610	0.710	87.360		
0.715	781.820	0.715	62.160		
0.720	810.030	0.720	57.120		
0.725	842.270	0.725	47.040		
0.730	878.540	0.730	47.040		
0.735	898.690	0.735	39.760		
0.740	922.870	0.740	42.000		
0.745	947.050	0.745	36.960		
0.750	963.170	0.750	29.680		
0.755	979.290	0.755	29.680		
0.760	991.380	0.760	29.680		
0.765	999.440	0.770	19.600		
0.770	1007.500	0.770	19.600		
0.775	1010.000	0.775	17.360		
0.780	1001.920	0.780	12.500		
0.785	989.800	0.785	10.000		
0.790	977.680	0.790	7.500		
0.795	969.600	0.795	2.500		
0.800	969.600	0.800	0.000		
0.805	937.280	0.805	2.500		
0.810	921.120	0.810	7.500		
0.815	909.000	0.815	5.000		
0.825	900.920	0.820	5.000		
0.825	900.920	0.825	5.000		
0.830	888.800	0.830	5.000		
0.835	876.680	0.835	2.500		
0.840	868.600	0.840	2.500		
0.845	868.600	0.845	2.500		
0.850	860.520	0.850	5.000		
0.855	855.000	0.855	0.000		
0.860	844.740	0.860	0.000		
0.865	834.480	0.865	0.000		
0.870	824.220	0.870	0.000		
0.875	824.220	0.875	0.000		
0.880	817.380	0.880	0.000		
0.885	807.120	0.885	0.000		
0.890	807.120	0.890	0.000		
0.895	807.120	0.900	0.000		
0.900	807.120	0.900	0.000		
0.905	803.700	0.905	0.000		
0.910	800.280	0.910	0.000		
0.915	800.280	0.915	0.000		
0.920	803.700	0.920	0.000		
0.925	800.280	0.925	0.000		
0.930	811.900	0.930	0.000		
0.935	811.900	0.935	0.000		
0.940	811.900	0.940	0.000		
0.945	808.370	0.945	0.000		
0.950	808.370	0.950	0.000		
0.955	815.430	0.955	2.500		
0.965	822.490	0.960	0.000		
0.965	822.490	0.965	2.500		
0.970	829.550	0.970	2.500		
0.975	836.610	0.975	0.000		
0.980	836.610	0.980	0.000		
0.985	843.670	0.985	0.000		
0.990	857.790	0.990	5.000		
0.995	864.850	0.995	2.500		
1.000	871.910	1.000	5.000		
1.005	882.500	1.005	0.000		
1.010	882.000	1.010	5.000		
1.015	894.600	1.015	10.000		
1.020	907.200	1.025	2.500		
1.025	911.400	1.025	2.500		
1.030	928.200	1.030	7.500		
1.035	932.400	1.035	7.500		
1.040	945.000	1.040	7.500		
1.045	953.400	1.045	12.500		
1.050	970.200	1.050	10.000		
1.055	978.600	1.055	12.500		
1.060	991.200	1.060	7.500		
1.065	1008.000	1.065	7.500		
1.070	1024.800	1.070	12.500		
1.075	1041.600	1.075	12.500		
1.080	1050.000	1.080	7.500		
1.085	1064.900	1.085	12.500		
1.090	1078.790	1.090	6.840		
1.095	1088.050	1.095	11.970		
1.105	1097.310	1.100	8.550		
1.105	1097.310	1.105	13.680		
1.110	1111.200	1.110	22.230		
1.115	1120.460	1.115	32.490		
1.120	1129.720	1.120	35.910		
1.125	1134.350	1.125	51.300		
1.130	1138.980	1.130	83.790		
1.135	1148.240	1.135	124.830		
1.140	1143.610	1.140	174.420		
1.145	1157.500	1.145	229.140		
1.150	1148.240	1.155	294.120		
1.155	1143.610	1.155	294.120		
1.160	1134.350	1.160	364.230		
1.165	1122.500	1.165	427.500		
1.170	1109.030	1.170	498.680		
1.175	1086.580	1.175	564.200		
1.180	1068.620	1.180	618.800		
1.185	1037.190	1.185	658.840		
1.190	992.290	1.190	677.040		
1.195	956.370	1.195	691.600		
1.200	906.980	1.200	717.080		
1.205	853.100	1.205	746.200		
1.210	794.730	1.210	768.040		
1.215	722.890	1.215	789.880		
1.220	642.070	1.220	815.360		
1.225	556.760	1.225	837.200		
1.230	475.940	1.230	866.320		
1.240	399.610	1.235	891.800		
1.240	399.610	1.240	910.000		
1.245	307.500	1.245	933.750		
1.250	244.770	1.250	946.200		
1.255	201.720	1.255	962.800		
1.260	164.820	1.260	971.100		
1.265	138.990	1.265	991.850		
1.270	107.010	1.270	1004.300		
1.275	87.330	1.275	1008.450		
1.280	68.880	1.285	1029.200		
1.285	51.660	1.285	1029.200		
1.290	46.740	1.290	1029.200		
1.295	39.360	1.295	1037.500		
1.300	29.520	1.300	1037.500		
1.305	24.600	1.305	1037.500		
1.310	22.140	1.310	1025.050		
1.315	22.140	1.315	1016.750		
1.320	15.000	1.320	1004.300		
1.325	12.480	1.325	997.500		
1.330	4.980	1.330	981.540		
1.335	9.960	1.335	965.580		
1.340	4.980	1.340	953.610		
1.345	0.000	1.345	933.660		
1.350	0.000	1.350	913.710		
1.355	0.000	1.355	893.760		
1.360	0.000	1.360	885.780		
1.365	4.980	1.365	861.840		
1.370	0.000	1.370	857.850		
1.380	0.000	1.375	841.890		
1.380	0.000	1.380	829.920		
1.385	2.460	1.385	813.960		
1.390	0.000	1.390	813.960		
1.395	0.000	1.395	801.990		
1.400	0.000	1.400	795.000		
1.405	0.000	1.405	782.280		
1.410	0.000	1.415	782.280		
1.415	0.000	1.415	782.280		
1.420	0.000	1.420	769.560		
1.425	0.000	1.425	769.560		
1.430	0.000	1.430	769.560		
1.435	0.000	1.435	763.200		
1.440	0.000	1.440	763.200		
1.445	0.000	1.445	763.200		
1.450	0.000	1.450	756.840		
1.455	0.000	1.455	756.840		
1.460	0.000	1.460	753.660		
1.465	0.000	1.465	756.840		
1.470	0.000	1.470	763.200		
1.475	0.000	1.475	763.200		
1.480	0.000	1.480	766.800		
1.485	0.000	1.485	774.000		
1.490	7.480	1.490	781.200		
1.495	10.000	1.495	784.800		
1.500	0.000	1.500	792.000		
1.505	2.480	1.505	799.200		
1.510	5.000	1.510	806.400		
1.520	5.000	1.515	813.600		
1.520	5.000	1.520	824.400		
1.525	2.480	1.525	835.200		
1.530	2.480	1.530	849.600		
1.535	5.000	1.540	853.200		
1.540	2.480	1.540	853.200		
1.545	5.000	1.545	874.800		
1.550	7.480	1.550	882.000		
1.555	5.000	1.555	900.000		
1.560	0.000	1.560	915.740		
1.565	5.000	1.565	924.420		
1.570	2.500	1.570	933.100		
1.575	0.000	1.575	946.120		
1.580	0.000	1.580	963.480		
1.585	0.000	1.585	976.500		
1.590	0.000	1.590	985.180		
1.595	0.000	1.595	998.200		
1.600	2.500	1.600	1015.560		
1.605	2.500	1.605	1019.900		
1.610	5.000	1.610	1037.260		
1.615	0.000	1.615	1045.940		
1.620	2.500	1.620	1058.960		
1.625	5.000	1.625	1071.980		
1.630	2.310	1.630	1085.000		
1.635	2.310	1.635	1094.140		
1.640	14.910	1.640	1103.220		
1.645	7.350	1.645	1112.300		
1.655	9.870	1.650	1116.840		
1.655	9.870	1.655	1116.840		
1.660	7.350	1.660	1125.920		
1.665	7.350	1.670	1135.000		
1.670	9.870	1.670	1135.000		
1.675	4.830	1.675	1135.000		
1.680	7.350	1.680	1130.460		
1.685	4.830	1.685	1125.920		
1.690	7.350	1.690	1116.840		
1.695	17.430	1.695	1112.300		
1.700	29.820	1.700	1098.680		
1.705	52.500	1.705	1080.520		
1.710	85.250	1.710	1066.900		
1.715	121.000	1.715	1037.500		
1.720	167.750	1.720	1012.600		
1.725	195.250	1.725	975.250		
1.730	220.000	1.730	933.750		
1.735	261.250	1.735	883.950		
1.740	313.500	1.740	834.150		
1.745	357.500	1.745	771.900		
1.750	412.500	1.750	705.500		
1.755	467.500	1.755	639.100		
1.760	508.750	1.760	564.400		
1.765	561.000	1.765	481.400		
1.770	610.500	1.770	406.700		
1.775	657.250	1.775	332.000		
1.780	687.500	1.780	278.050		
1.785	716.880	1.785	224.100		
1.795	737.480	1.790	180.000		
1.795	737.480	1.800	136.800		
1.800	762.200	1.800	136.800		
1.805	791.040	1.805	107.280		
1.810	824.000	1.810	82.080		
1.815	856.960	1.815	61.920		
1.820	881.680	1.820	49.680		
1.825	906.400	1.825	37.440		
1.830	927.000	1.830	39.600		
1.835	947.600	1.835	29.520		
1.840	972.320	1.840	24.480		
1.845	997.040	1.845	22.320		
1.850	1009.400	1.850	17.280		
1.855	1025.880	1.855	12.240		
1.860	1030.000	1.860	7.200		
1.865	1039.120	1.865	4.320		
1.870	1047.500	1.870	7.500		
1.875	1030.740	1.875	0.000		
1.880	1034.930	1.880	2.490		
1.885	1022.360	1.885	0.000		
1.890	1005.600	1.890	0.000		
1.895	976.270	1.895	0.000		
1.900	951.130	1.900	0.000		
1.905	930.180	1.905	0.000		
1.910	905.040	1.910	0.000		
1.915	884.090	1.915	0.000		
1.920	858.950	1.920	0.000		
1.930	838.000	1.930	0.000		
1.930	838.000	1.930	0.000		
1.935	821.240	1.935	0.000		
1.940	796.100	1.940	0.000		
1.945	790.000	1.945	0.000		
1.950	771.040	1.950	0.000		
1.955	752.080	1.955	0.000		
1.960	739.440	1.960	0.000		
1.965	729.960	1.965	0.000		
1.970	720.480	1.970	0.000		
1.975	717.320	1.975	0.000		
1.980	704.680	1.980	0.000		
1.985	695.200	1.985	0.000		
1.990	695.200	1.990	0.000		
1.995	692.040	1.995	0.000		
2.000	685.720	2.000	0.000		
2.005	692.040	2.005	0.000		
2.010	692.040	2.010	0.000		
2.015	688.880	2.015	0.000		
2.020	700.520	2.020	0.000		
2.025	703.840	2.025	0.000		
2.030	707.160	2.030	0.000		
2.035	717.120	2.035	5.000		
2.040	720.440	2.040	0.000		
2.045	730.400	2.045	0.000		
2.050	740.360	2.055	0.000		
2.055	747.000	2.055	0.000		
2.060	760.280	2.060	0.000		
2.070	770.240	2.065	0.000		
2.070	770.240	2.070	2.500		
2.075	783.520	2.075	0.000		
2.080	796.800	2.080	2.500		
2.085	806.760	2.085	2.500		
2.090	816.720	2.090	5.000		
2.095	830.000	2.095	2.500		
2.100	848.540	2.100	0.000		
2.105	860.720	2.105	0.000		
2.110	872.900	2.110	2.500		
2.115	885.080	2.115	0.000		
2.120	897.260	2.120	2.500		
2.125	905.380	2.125	2.500		
2.130	921.620	2.130	7.500		
2.135	933.800	2.135	2.500		
2.140	945.980	2.140	7.500		
2.145	954.100	2.145	7.500		
2.150	966.280	2.150	7.500		
2.155	978.460	2.155	10.000		
2.160	994.700	2.160	12.500		
2.165	998.760	2.165	12.500		
2.170	1015.000	2.170	12.500		
2.175	1025.920	2.175	7.500		
2.180	1034.880	2.185	6.780		
2.185	1048.320	2.185	6.780		
2.190	1061.760	2.190	6.780		
2.195	1061.760	2.195	6.780		
2.200	1079.680	2.200	6.780		
2.210	1084.160	2.205	6.780		
2.210	1084.160	2.210	9.040		
2.215	1097.600	2.215	21.470		
2.220	1093.120	2.220	29.380		
2.225	1102.080	2.225	44.070		
2.230	1115.520	2.230	68.930		
2.235	1111.040	2.235	101.700		
2.240	1120.000	2.240	138.990		
2.245	1120.000	2.245	179.670		
2.250	1111.040	2.250	227.130		
2.255	1110.000	2.255	282.500		
2.260	1096.680	2.260	339.120		
2.265	1092.240	2.265	401.920		
2.270	1083.360	2.270	464.720		
2.275	1065.600	2.275	521.240		
2.280	1052.280	2.280	555.780		
2.285	1025.640	2.285	587.180		
2.290	1003.440	2.290	612.300		
2.295	972.360	2.295	634.280		
2.300	932.400	2.300	656.260		
2.305	888.000	2.305	681.380		
2.310	848.040	2.315	706.500		
2.315	781.440	2.315	706.500		
2.320	714.840	2.320	728.480		
2.325	617.160	2.325	747.320		
2.330	545.000	2.330	769.300		
2.335	455.620	2.335	785.000		
2.345	381.500	2.340	805.460		
2.345	381.500	2.345	825.010		
2.350	303.020	2.350	840.650		
2.355	248.520	2.355	860.200		
2.360	196.200	2.360	871.930		
2.365	165.680	2.365	891.480		
2.370	132.980	2.370	903.210		
2.375	111.180	2.375	922.760		
2.380	89.380	2.380	934.490		
2.385	76.300	2.385	950.130		
2.390	58.860	2.390	961.860		
2.395	45.780	2.395	969.680		
2.400	37.060	2.400	977.500		
2.405	30.520	2.405	969.680		
2.410	22.500	2.410	969.680		
2.415	17.460	2.415	965.000		
2.420	12.420	2.420	953.420		
2.425	7.470	2.425	945.700		
2.430	7.470	2.430	934.120		
2.435	2.430	2.440	918.680		
2.440	0.000	2.440	918.680		
2.445	0.000	2.445	910.960		
2.450	0.000	2.450	895.520		
2.455	0.000	2.455	876.220		
2.460	0.000	2.460	864.640		
2.465	0.000	2.465	849.200		
2.470	0.000	2.470	837.620		
2.475	0.000	2.475	822.180		
2.485	0.000	2.480	810.600		
2.485	0.000	2.485	799.020		
2.490	0.000	2.490	787.440		
2.495	0.000	2.495	772.500		
2.500	7.500	2.500	769.410		
2.505	2.490	2.505	757.050		
2.510	0.000	2.510	757.050		
2.515	4.980	2.515	744.690		
2.520	0.000	2.520	750.870		
2.525	0.000	2.525	744.690		
2.530	0.000	2.530	744.690		
2.535	0.000	2.535	744.690		
2.540	0.000	2.540	744.690		
2.545	0.000	2.545	741.600		
2.550	2.490	2.550	741.600		
2.555	2.490	2.555	744.690		
2.560	0.000	2.560	747.780		
2.565	0.000	2.570	744.690		
2.570	0.000	2.570	744.690		
2.575	0.000	2.575	750.820		
2.580	5.000	2.580	750.820		
2.585	5.000	2.585	754.280		
2.590	0.000	2.590	761.200		
2.595	2.500	2.595	764.660		
2.600	5.000	2.600	771.580		
2.605	2.500	2.605	781.960		
2.610	2.500	2.610	792.340		
2.615	2.500	2.615	806.180		
2.625	0.000	2.620	809.640		
2.625	0.000	2.625	823.480		
2.630	0.000	2.630	830.400		
2.635	0.000	2.635	844.240		
2.640	2.500	2.640	854.620		
2.645	0.000	2.645	865.000		
2.650	0.000	2.650	879.900		
2.655	0.000	2.655	892.470		
2.660	2.500	2.660	900.850		
2.665	0.000	2.665	921.800		
2.670	5.000	2.670	930.180		
2.675	2.500	2.675	942.750		
2.680	5.000	2.680	951.130		
2.685	2.500	2.685	967.890		
2.690	5.000	2.690	980.460		
2.695	7.500	2.700	984.650		
2.700	0.000	2.700	984.650		
2.705	10.000	2.705	1001.410		
2.710	5.000	2.710	1013.980		
2.715	12.500	2.715	1022.360		
2.720	12.400	2.720	1034.930		
2.725	10.000	2.725	1047.500		
2.730	12.400	2.730	1045.750		
2.735	12.400	2.735	1063.550		
2.740	10.000	2.740	1072.450		
2.745	10.000	2.745	1076.900		
2.750	12.400	2.750	1085.800		
2.760	12.400	2.755	1094.700		
2.760	12.400	2.760	1103.600		
2.765	12.400	2.765	1103.600		
2.770	12.400	2.770	1112.500		
2.775	12.400	2.775	1108.050		
2.780	17.400	2.780	1103.600		
2.785	35.000	2.785	1103.600		
2.790	45.000	2.790	1090.250		
2.795	50.000	2.795	1081.350		
2.800	74.710	2.800	1072.450		
2.805	115.680	2.805	1055.000		
2.810	154.240	2.810	1025.460		
2.815	197.620	2.815	1008.580		
2.820	233.770	2.820	979.040		
2.825	272.330	2.830	941.060		
2.830	310.890	2.830	941.060		
2.835	359.090	2.835	907.300		
2.840	404.880	2.840	860.880		
2.845	448.260	2.845	801.800		
2.850	489.230	2.850	755.380		
2.855	522.970	2.855	687.860		
2.860	551.890	2.860	624.560		
2.865	571.170	2.865	548.600		
2.870	602.500	2.870	472.640		
2.875	624.160	2.875	384.020		
2.880	658.000	2.880	299.620		
2.885	691.840	2.885	250.000		
2.890	710.640	2.890	205.000		
2.900	736.960	2.895	167.000		
2.900	736.960	2.900	132.000		
2.905	763.280	2.905	110.000		
2.910	785.840	2.910	85.000		
2.915	808.400	2.915	65.000		
2.920	834.720	2.920	52.000		
2.925	853.520	2.925	45.000		
2.930	872.320	2.930	42.000		
2.935	883.600	2.935	40.000		
2.940	906.160	2.940	30.000		
2.945	921.200	2.945	30.000		
2.950	940.000	2.955	27.000		
2.955	953.670	2.955	27.000		
2.960	953.670	2.960	22.000		
2.965	957.500	2.965	15.000		
2.970	953.670	2.970	12.480		
2.975	949.840	2.975	4.980		
2.980	934.520	2.980	7.500		
2.985	926.860	2.985	4.980		
2.990	907.710	2.990	2.460		
2.995	892.390	2.995	2.460		
3.000	869.410	3.000	0.000		
3.005	846.430	3.005	2.460		
3.010	827.280	3.010	2.460		
3.015	804.300	3.015	0.000		
3.020	785.150	3.020	0.000		
3.025	769.830	3.025	0.000		
3.030	752.500	3.030	0.000		
3.040	737.450	3.035	4.980		
3.040	737.450	3.040	0.000		
3.045	725.410	3.045	0.000		
3.050	707.350	3.050	0.000		
3.055	701.330	3.055	0.000		
3.060	689.290	3.060	0.000		
3.065	674.240	3.065	0.000		
3.070	668.220	3.070	0.000		
3.075	659.190	3.075	0.000		
3.080	653.170	3.085	0.000		
3.085	650.160	3.085	0.000		
3.090	647.150	3.090	0.000		
3.095	635.110	3.095	0.000		
3.100	635.110	3.100	0.000		
3.105	632.100	3.105	0.000		
3.110	637.870	3.110	0.000		
3.115	629.440	3.115	0.000		
3.120	632.250	3.120	0.000		
3.125	635.060	3.125	0.000		
3.130	635.060	3.130	0.000		
3.135	635.060	3.135	0.000		
3.140	640.680	3.140	0.000		
3.145	651.920	3.145	0.000		
3.150	651.920	3.150	0.000		
3.155	654.730	3.155	0.000		
3.160	671.590	3.160	0.000		
3.165	677.210	3.165	0.000		
3.175	685.640	3.170	0.000		
3.175	685.640	3.175	0.000		
3.180	696.880	3.180	2.500		
3.185	702.500	3.185	0.000		
3.190	711.040	3.190	0.000		
3.195	725.120	3.195	0.000		
3.200	735.680	3.200	0.000		
3.205	742.720	3.205	0.000		
3.210	756.800	3.215	0.000		
3.215	767.360	3.215	0.000		
3.220	777.920	3.220	0.000		
3.225	784.960	3.225	2.480		
3.230	799.040	3.230	0.000		
3.235	813.120	3.235	7.480		
3.240	827.200	3.240	7.480		
3.245	841.280	3.245	2.480		
3.250	851.840	3.250	7.480		
3.255	862.400	3.255	2.480		
3.260	880.000	3.260	2.480		
3.265	888.100	3.265	10.000		
3.270	904.700	3.270	10.000		
3.275	908.850	3.275	4.800		
3.280	933.750	3.280	4.800		
3.285	937.900	3.285	6.720		
3.290	954.500	3.290	6.720		
3.295	966.950	3.295	4.800		
3.300	979.400	3.300	4.800		
3.305	987.700	3.305	6.720		
3.315	1000.150	3.310	17.280		
3.315	1000.150	3.315	31.680		
3.320	1008.450	3.320	39.360		
3.325	1020.900	3.325	59.520		
3.330	1020.900	3.330	94.080		
3.335	1037.500	3.335	139.200		
3.340	1037.500	3.345	187.200		
3.345	1042.500	3.345	187.200		
3.350	1029.990	3.350	240.000		
3.355	1021.650	3.355	297.440		
3.360	1017.480	3.360	361.660		
3.365	1004.970	3.365	429.260		
3.370	996.630	3.370	496.860		
3.375	975.780	3.375	564.460		
3.380	946.590	3.380	615.160		
3.385	917.400	3.385	655.720		
3.390	879.870	3.390	679.380		
3.395	834.000	3.395	706.420		
3.400	771.450	3.400	740.220		
3.405	696.390	3.405	774.020		
3.410	617.160	3.410	787.540		
3.415	546.270	3.415	804.440		
3.420	462.500	3.420	821.340		
3.425	392.200	3.425	845.000		
3.430	316.350	3.430	867.210		
3.435	249.750	3.435	883.650		
3.440	203.500	3.440	904.200		
3.445	168.350	3.445	920.640		
3.455	136.900	3.450	937.080		
3.455	136.900	3.455	949.410		
3.460	109.150	3.460	961.740		
3.465	96.200	3.470	974.070		
3.470	81.400	3.470	974.070		
3.475	57.350	3.475	986.400		
3.480	46.250	3.480	998.730		
3.485	33.300	3.485	1015.170		
3.490	24.050	3.490	1027.500		
3.495	16.650	3.495	1019.280		
3.500	5.000	3.500	1019.280		
3.505	5.000	3.505	1019.280		
3.510	2.500	3.510	1015.000		
3.515	0.000	3.515	998.760		
3.520	0.000	3.520	990.640		
3.525	0.000	3.525	974.400		
3.530	0.000	3.530	958.160		
3.535	0.000	3.535	941.920		
3.540	0.000	3.540	929.740		
3.545	0.000	3.545	909.440		
3.550	0.000	3.550	893.200		
3.555	0.000	3.555	872.900		
3.560	0.000	3.560	860.720		
3.565	0.000	3.565	844.480		
3.570	0.000	3.570	824.180		
3.575	0.000	3.575	812.000		
3.580	0.000	3.580	799.820		
3.590	0.000	3.585	790.000		
3.590	0.000	3.590	780.520		
3.595	2.500	3.600	767.880		
3.600	0.000	3.600	767.880		
3.605	0.000	3.605	758.400		
3.610	2.500	3.610	752.080		
3.615	0.000	3.615	742.600		
3.620	0.000	3.620	739.440		
3.625	2.500	3.625	729.960		
3.630	0.000	3.630	720.480		
3.635	0.000	3.635	717.320		
3.640	0.000	3.640	704.680		
3.645	0.000	3.645	704.680		
3.650	2.500	3.650	701.520		
3.655	0.000	3.655	701.520		
3.660	5.000	3.660	704.680		
3.665	0.000	3.665	699.780		
3.670	0.000	3.670	706.320		
3.675	0.000	3.675	706.320		
3.680	0.000	3.680	709.590		
3.685	0.000	3.685	719.400		
3.690	0.000	3.690	719.400		
3.695	0.000	3.695	729.210		
3.700	0.000	3.700	732.480		
3.705	0.000	3.705	742.290		
3.710	0.000	3.710	755.370		
3.715	0.000	3.715	761.910		
3.720	0.000	3.720	774.990		
3.730	0.000	3.730	788.070		
3.730	0.000	3.730	788.070		
3.735	0.000	3.735	797.880		
3.740	2.480	3.740	817.500		
3.745	0.000	3.745	829.620		
3.750	0.000	3.750	850.570		
3.755	0.000	3.755	863.140		
3.760	2.480	3.760	879.900		
3.765	0.000	3.765	892.470		
3.770	0.000	3.770	913.420		
3.775	0.000	3.775	930.180		
3.780	7.480	3.780	951.130		
3.785	2.480	3.785	963.700		
3.790	5.000	3.790	980.460		
3.795	10.000	3.795	993.030		
3.800	2.480	3.800	1001.410		
3.805	5.000	3.805	1026.550		
3.810	7.480	3.810	1039.120		
3.815	7.480	3.815	1047.500		
3.820	7.480	3.820	1061.160		
3.825	12.320	3.825	1065.600		
3.830	7.480	3.830	1078.920		
3.835	12.320	3.835	1083.360		
3.840	12.320	3.840	1092.240		
3.845	9.900	3.845	1096.680		
3.850	14.960	3.850	1096.680		
3.855	7.480	3.860	1101.120		
3.865	9.900	3.860	1101.120		
3.865	9.900	3.865	1110.000		
3.870	22.440	3.870	1105.560		
3.875	29.920	3.875	1105.560		
3.880	39.820	3.880	1096.680		
3.885	55.000	3.885	1096.680		
3.890	79.920	3.890	1083.360		
3.895	126.540	3.895	1074.480		
3.900	162.060	3.900	1065.000		
3.905	195.360	3.905	1039.440		
3.910	228.660	3.910	1022.400		
3.915	261.960	3.915	988.320		
3.920	299.700	3.920	949.980		
3.925	339.660	3.925	911.640		
3.930	377.400	3.930	864.780		
3.935	408.480	3.935	826.440		
3.940	424.020	3.940	766.800		
3.945	459.540	3.945	711.420		
3.950	488.400	3.950	647.520		
3.955	517.260	3.955	583.620		
3.960	555.000	3.960	515.460		
3.965	593.600	3.965	438.780		
3.970	619.570	3.970	366.360		
3.975	641.830	3.975	305.000		
3.980	671.510	3.985	246.440		
3.985	704.900	3.985	246.440		
3.990	730.870	3.990	207.400		
3.995	753.130	3.995	172.020		
4.005	779.100	4.000	148.840		
4.005	779.100	4.005	117.120		
4.010	812.490	4.010	91.500		
4.015	838.460	4.015	71.980		
4.020	864.430	4.020	59.780		
4.025	875.560	4.025	48.800		
4.030	894.110	4.030	36.600		
4.035	908.950	4.035	34.160		
4.040	927.500	4.040	31.720		
4.045	942.180	4.045	26.840		
4.050	949.840	4.050	26.840		
4.055	957.500	4.055	20.000		
4.060	953.670	4.060	17.440		
4.065	949.840	4.065	12.480		
4.070	942.180	4.070	12.480		
4.075	934.520	4.075	4.960		
4.080	919.200	4.080	7.440		
4.085	907.710	4.085	10.000		
4.090	896.220	4.090	10.000		
4.095	877.070	4.095	2.480		
4.100	861.750	4.100	4.960		
4.105	846.430	4.105	4.960		
4.110	834.940	4.115	4.960		
4.115	819.620	4.115	4.960		
4.120	807.500	4.120	0.000		
4.125	794.580	4.125	0.000		
4.130	784.890	4.130	2.480		
4.135	771.970	4.135	0.000		
4.145	768.740	4.140	0.000		
4.145	768.740	4.145	0.000		
4.150	755.820	4.150	2.500		
4.155	746.130	4.155	0.000		
4.160	733.210	4.160	0.000		
4.165	736.440	4.165	0.000		
4.170	723.520	4.170	2.500		
4.175	717.060	4.175	0.000		
4.180	717.060	4.180	0.000		
4.185	707.370	4.185	0.000		
4.190	710.600	4.190	0.000		
4.195	710.600	4.195	2.500		
4.200	708.240	4.200	0.000		
4.205	711.360	4.205	2.500		
4.210	708.240	4.210	0.000		
4.215	708.240	4.215	2.500		
4.220	714.480	4.220	0.000		
4.225	723.840	4.225	2.500		
4.230	726.960	4.230	0.000		
4.235	730.080	4.235	0.000		
4.240	739.440	4.245	0.000		
4.245	739.440	4.245	0.000		
4.250	751.920	4.250	2.500		
4.255	751.920	4.255	0.000		
4.260	764.400	4.260	0.000		
4.265	770.640	4.265	2.500		
4.270	780.000	4.270	0.000		
4.280	789.250	4.275	0.000		
4.280	789.250	4.280	0.000		
4.285	800.800	4.285	2.500		
4.290	812.350	4.290	0.000		
4.295	823.900	4.295	0.000		
4.300	835.450	4.300	0.000		
4.305	847.000	4.305	0.000		
4.310	866.250	4.310	0.000		
4.315	881.650	4.315	0.000		
4.320	889.350	4.320	0.000		
4.325	904.750	4.325	2.490		
4.330	916.300	4.330	2.490		
4.335	931.700	4.335	2.490		
4.340	935.550	4.340	4.980		
4.345	947.100	4.345	2.490		
4.350	962.500	4.350	7.500		
4.355	972.360	4.355	0.000		
4.360	985.500	4.360	4.980		
4.365	994.260	4.365	4.960		
4.370	998.640	4.375	2.480		
4.375	1016.160	4.375	2.480		
4.380	1016.160	4.380	4.960		
4.385	1033.680	4.385	4.960		
4.390	1046.820	4.390	0.000		
4.395	1051.200	4.395	4.960		
4.400	1059.960	4.400	4.960		
4.405	1068.720	4.405	2.480		
4.410	1077.480	4.410	2.480		
4.420	1086.240	4.415	7.440		
4.420	1086.240	4.420	14.880		
4.425	1086.240	4.425	22.320		
4.430	1095.000	4.430	34.720		
4.435	1096.160	4.435	54.870		
4.440	1105.000	4.440	77.500		
4.445	1105.000	4.445	116.220		
4.450	1096.160	4.450	154.960		
4.455	1091.740	4.455	196.680		
4.460	1078.480	4.460	247.340		
4.465	1078.480	4.465	298.000		
4.470	1069.640	4.470	369.520		
4.475	1051.960	4.475	441.040		
4.480	1034.280	4.480	521.500		
4.485	1007.760	4.485	578.120		
4.490	967.980	4.490	619.840		
4.495	937.040	4.500	643.680		
4.500	892.840	4.500	643.680		
4.505	844.220	4.505	679.440		
4.510	787.500	4.510	700.300		
4.515	721.350	4.515	721.160		
4.520	652.050	4.520	745.000		
4.525	560.700	4.525	772.310		
4.530	485.100	4.530	788.830		
4.535	403.200	4.535	809.480		
4.540	324.450	4.540	838.390		
4.545	267.750	4.545	867.300		
4.550	220.500	4.550	883.820		
4.560	170.100	4.555	908.600		
4.560	170.100	4.560	929.250		
4.565	151.200	4.565	949.900		
4.570	116.550	4.570	966.420		
4.575	97.650	4.575	982.940		
4.580	78.750	4.580	999.460		
4.585	66.150	4.585	1011.850		
4.590	52.500	4.590	1020.110		
4.595	42.420	4.595	1032.500		
4.600	37.380	4.600	1032.500		
4.605	29.820	4.605	1032.500		
4.610	19.950	4.610	1028.370		
4.615	24.990	4.615	1024.240		
4.620	17.430	4.620	1020.110		
4.625	12.390	4.630	1003.590		
4.630	9.870	4.630	1003.590		
4.635	4.830	4.635	991.200		
4.640	0.000	4.640	966.420		
4.645	0.000	4.645	954.030		
4.650	0.000	4.650	941.640		
4.655	0.000	4.655	920.990		
4.660	2.310	4.660	900.340		
4.665	0.000	4.665	879.690		
4.670	0.000	4.670	854.910		
4.675	2.500	4.675	838.390		
4.680	0.000	4.680	827.500		
4.685	2.500	4.685	810.950		
4.695	0.000	4.690	797.710		
4.695	0.000	4.695	787.780		
4.700	0.000	4.700	774.540		
4.705	2.500	4.705	764.610		
4.710	0.000	4.710	754.680		
4.715	0.000	4.715	744.750		
4.720	0.000	4.720	741.440		
4.725	0.000	4.725	734.820		
4.730	0.000	4.730	728.200		
4.735	0.000	4.735	724.890		
4.740	0.000	4.740	724.890		
4.745	2.500	4.745	721.580		
4.750	0.000	4.750	714.960		
4.755	0.000	4.760	715.830		
4.760	0.000	4.760	715.830		
4.765	2.500	4.765	709.410		
4.770	0.000	4.770	709.410		
4.775	0.000	4.775	719.040		
4.780	2.500	4.780	719.040		
4.785	2.500	4.785	719.040		
4.790	0.000	4.790	725.460		
4.795	2.500	4.795	731.880		
4.800	2.500	4.800	738.300		
4.805	0.000	4.805	747.930		
4.810	2.500	4.810	751.140		
4.815	0.000	4.815	760.770		
4.820	5.000	4.820	776.820		
4.825	2.500	4.825	789.660		
4.835	2.500	4.830	802.500		
4.835	2.500	4.835	812.040		
4.840	2.500	4.840	828.200		
4.845	5.000	4.845	836.280		
4.850	5.000	4.850	856.480		
4.855	0.000	4.855	872.640		
4.860	2.500	4.860	888.800		
4.865	5.000	4.865	896.880		
4.870	7.500	4.870	909.000		
4.875	5.000	4.875	937.280		
4.880	7.500	4.885	941.320		
4.885	5.000	4.885	941.320		
4.890	5.000	4.890	957.480		
4.895	12.500	4.895	969.600		
4.900	7.440	4.900	985.760		
4.905	7.440	4.905	993.840		
4.910	12.480	4.910	1010.000		
4.915	12.480	4.915	1020.800		
4.920	14.960	4.920	1029.600		
4.925	14.960	4.925	1047.200		
4.930	17.440	4.930	1047.200		
4.935	20.000	4.935	1051.600		
4.940	14.960	4.940	1056.000		
4.945	17.440	4.945	1064.800		
4.950	12.480	4.950	1078.000		
4.955	20.000	4.955	1082.400		
4.960	17.440	4.960	1086.800		
4.965	12.480	4.965	1091.200		
4.975	17.440	4.970	1091.200		
4.975	17.440	4.975	1091.200		
4.980	14.940	4.980	1100.000		
4.985	11.620	4.985	1100.000		
4.990	26.560	4.990	1090.000		
4.995	36.520	4.995	1090.000		
5.000	51.460	5.000	1081.280		
5.005	81.340	5.005	1072.560		
5.010	114.540	5.015	1059.480		
5.015	149.400	5.015	1059.480		
5.020	180.940	5.020	1037.680		
5.025	204.180	5.025	1015.880		
5.030	234.060	5.030	994.080		
5.035	268.920	5.035	963.560		
5.040	317.060	5.040	924.320		
5.045	368.520	5.045	889.440		
5.050	415.000	5.050	837.120		
5.055	459.520	5.055	789.160		
5.060	495.420	5.060	723.760		
5.065	542.090	5.065	658.360		
5.070	592.350	5.070	595.000		
5.075	631.840	5.075	518.840		
5.080	664.150	5.080	442.680		
5.085	696.460	5.085	354.620		
5.090	725.180	5.090	276.080		
5.095	746.720	5.095	226.100		
5.100	775.440	5.100	188.020		
5.110	800.570	5.105	154.700		
5.110	800.570	5.110	123.760		
5.115	825.700	5.115	104.720		
5.120	854.420	5.120	78.540		
5.125	875.960	5.125	64.260		
5.130	897.500	5.130	52.360		
5.135	912.000	5.135	42.840		
5.140	936.000	5.145	35.700		
5.145	952.000	5.145	35.700		
5.150	972.000	5.150	35.000		
5.155	980.000	5.155	29.960		
5.160	992.000	5.160	32.480		
5.165	1000.000	5.165	27.440		
5.170	1000.000	5.170	19.880		
5.175	1000.000	5.175	9.940		
5.180	992.000	5.180	7.420		
5.185	980.000	5.185	4.900		
5.190	976.000	5.190	0.000		
5.195	960.000	5.195	2.380		
5.200	944.000	5.200	0.000		
5.205	924.000	5.205	0.000		
5.210	900.000	5.210	0.000		
5.215	885.600	5.215	0.000		
5.220	867.600	5.220	0.000		
5.225	849.600	5.225	0.000		
5.230	831.600	5.230	0.000		
5.235	817.200	5.235	2.500		
5.240	799.200	5.240	2.500		
5.250	792.000	5.245	0.000		
5.250	792.000	5.250	0.000		
5.255	774.000	5.255	0.000		
5.260	766.800	5.260	0.000		
5.265	752.400	5.265	0.000		
5.270	741.600	5.275	0.000		
5.275	727.200	5.275	0.000		
5.280	727.200	5.280	0.000		
5.285	720.000	5.285	0.000		
5.290	715.740	5.290	0.000		
5.295	715.740	5.295	0.000		
5.300	706.680	5.300	0.000		
5.305	709.700	5.305	0.000		
5.310	709.700	5.310	0.000		
5.315	712.720	5.315	0.000		
5.320	715.740	5.320	0.000		
5.325	712.720	5.325	0.000		
5.330	718.760	5.330	0.000		
5.335	721.780	5.335	0.000		
5.340	724.800	5.340	0.000		
5.345	733.860	5.345	0.000		
5.350	742.920	5.350	0.000		
5.355	742.920	5.355	5.000		
5.360	755.000	5.360	5.000		
5.365	759.200	5.365	0.000		
5.370	770.150	5.370	2.500		
5.375	773.800	5.375	0.000		
5.380	781.100	5.380	0.000		
5.390	795.700	5.385	0.000		
5.390	795.700	5.390	0.000		
5.395	810.300	5.400	0.000		
5.400	824.900	5.400	0.000		
5.405	828.550	5.405	2.500		
5.410	846.800	5.410	0.000		
5.415	857.750	5.415	0.000		
5.420	865.050	5.420	0.000		
5.425	872.350	5.425	0.000		
5.430	894.250	5.430	2.500		
5.435	901.550	5.435	2.500		
5.440	912.500	5.440	0.000		
5.445	924.000	5.445	2.500		
5.450	937.200	5.450	2.500		
5.455	954.800	5.455	2.500		
5.460	968.000	5.460	2.450		
5.465	981.200	5.465	2.450		
5.470	990.000	5.470	2.450		
5.475	1003.200	5.475	7.490		
5.480	1020.800	5.480	2.450		
5.485	1029.600	5.485	4.970		
5.490	1047.200	5.490	7.490		
5.495	1060.400	5.495	7.490		
5.500	1073.600	5.500	4.970		
5.505	1073.600	5.505	2.450		
5.510	1086.800	5.510	2.450		
5.515	1100.000	5.515	4.970		
5.525	1108.360	5.520	0.000		
5.525	1108.360	5.530	7.490		
5.530	1112.940	5.530	7.490		
5.535	1126.680	5.535	17.500		
5.540	1131.260	5.540	24.100		
5.545	1135.840	5.545	31.330		
5.550	1140.420	5.550	60.250		
5.555	1140.420	5.555	91.580		
5.560	1145.000	5.560	127.730		
5.565	1131.260	5.565	168.700		
5.570	1122.100	5.570	226.540		
5.575	1122.100	5.575	277.150		
5.580	1103.780	5.580	334.990		
5.585	1080.880	5.585	402.470		
5.590	1057.980	5.590	462.720		
5.595	1030.500	5.595	515.740		
5.600	995.000	5.600	551.890		
5.605	955.200	5.605	578.400		
5.610	907.440	5.610	602.500		
5.615	851.720	5.615	627.000		
5.620	784.060	5.620	657.400		
5.625	712.420	5.625	680.200		
5.630	640.780	5.630	703.000		
5.635	553.220	5.635	725.800		
5.640	461.680	5.640	752.400		
5.645	390.040	5.645	775.200		
5.650	298.500	5.650	798.000		
5.655	238.800	5.660	839.800		
5.665	191.040	5.660	839.800		
5.665	191.040	5.665	862.600		
5.670	163.180	5.670	881.600		
5.675	139.300	5.675	904.400		
5.680	117.500	5.680	923.400		
5.685	94.940	5.685	938.600		
5.690	77.080	5.690	950.000		
5.695	62.040	5.695	970.550		
5.700	47.470	5.700	991.200		
5.705	37.130	5.705	1003.590		
5.710	29.610	5.710	1015.980		
5.715	19.740	5.715	1024.240		
5.720	24.910	5.720	1032.500		
5.725	12.220	5.725	1024.240		
5.730	7.050	5.730	1015.980		
5.735	4.700	5.735	1003.590		
5.740	4.700	5.740	995.330		
5.745	0.000	5.745	987.070		
5.750	4.700	5.750	974.680		
5.755	0.000	5.755	958.160		
5.760	0.000	5.760	933.380		
5.765	2.500	5.765	916.860		
5.770	0.000	5.770	905.000		
5.775	0.000	5.775	886.900		
5.780	2.500	5.780	868.800		
5.785	0.000	5.790	854.320		
5.790	0.000	5.790	854.320		
5.800	0.000	5.795	839.840		
5.800	0.000	5.800	821.740		
5.805	0.000	5.805	814.500		
5.810	2.500	5.810	800.020		
5.815	2.500	5.815	789.160		
5.820	0.000	5.820	778.300		
5.825	0.000	5.825	771.060		
5.830	0.000	5.830	763.820		
5.835	0.000	5.835	752.960		
5.840	0.000	5.840	756.580		
5.845	0.000	5.845	749.340		
5.850	0.000	5.850	739.440		
5.855	0.000	5.855	739.440		
5.860	0.000	5.860	745.680		
5.865	5.000	5.865	736.320		
5.870	2.500	5.870	739.440		
5.875	0.000	5.875	739.440		
5.880	2.500	5.880	739.440		
5.885	2.500	5.885	739.440		
5.890	0.000	5.890	739.440		
5.895	2.500	5.895	748.800		
5.900	5.000	5.900	745.680		
5.905	0.000	5.905	755.040		
5.910	5.000	5.915	764.400		
5.915	2.500	5.915	764.400		
5.920	2.500	5.920	770.640		
5.925	0.000	5.925	780.000		
5.930	2.500	5.930	786.920		
5.940	0.000	5.935	786.920		
5.940	0.000	5.940	798.380		
5.945	5.000	5.945	806.020		
5.950	5.000	5.950	821.300		
5.955	0.000	5.955	825.120		
5.960	2.500	5.960	836.580		
5.965	0.000	5.965	851.860		
5.970	0.000	5.970	859.500		
5.975	0.000	5.975	878.600		
5.980	2.500	5.980	890.060		
5.985	2.500	5.985	905.340		
5.990	7.490	5.990	924.440		
5.995	7.490	5.995	935.900		
6.000	7.490	6.000	955.000		
6.005	7.490	6.005	967.500		
6.010	2.450	6.010	990.000		
6.015	2.450	6.015	999.000		
6.020	7.490	6.020	1012.500		
6.025	7.490	6.025	1021.500		
6.030	12.460	6.030	1039.500		
6.035	12.460	6.035	1048.500		
6.040	14.980	6.045	1057.500		
6.045	14.980	6.045	1057.500		
6.050	14.980	6.050	1071.000		
6.055	12.460	6.055	1084.500		
6.060	17.500	6.060	1089.000		
6.065	12.000	6.065	1098.000		
6.070	17.000	6.070	1111.500		
6.080	15.000	6.075	1120.500		
6.080	15.000	6.080	1125.000		
6.085	20.000	6.085	1132.500		
6.090	12.000	6.090	1127.970		
6.095	20.000	6.095	1127.970		
6.100	32.000	6.100	1132.500		
6.105	50.000	6.105	1123.440		
6.110	62.000	6.110	1109.850		
6.115	92.000	6.115	1100.790		
6.120	125.000	6.120	1091.730		
6.125	157.000	6.125	1064.550		
6.130	190.000	6.130	1041.900		
6.135	225.000	6.135	1019.250		
6.140	250.000	6.140	983.010		
6.145	287.040	6.145	960.360		
6.150	333.840	6.150	919.590		
6.155	380.640	6.155	869.760		
6.160	424.320	6.160	822.500		
6.165	468.000	6.165	763.280		
6.170	521.040	6.175	690.900		
6.175	577.200	6.175	690.900		
6.180	611.520	6.180	611.940		
6.185	642.720	6.185	539.560		
6.190	677.040	6.190	467.180		
6.195	698.880	6.195	394.800		
6.200	717.600	6.200	322.420		
6.205	736.320	6.205	259.910		
6.215	761.280	6.210	213.850		
6.215	761.280	6.215	174.370		
6.220	780.000	6.220	144.760		
6.225	797.900	6.225	115.150		
6.230	825.550	6.230	88.830		
6.235	845.300	6.235	69.090		
6.240	861.100	6.240	60.000		
6.245	884.800	6.245	47.280		
6.250	904.550	6.250	42.480		
6.255	928.250	6.255	30.000		
6.260	951.950	6.260	32.400		
6.265	963.800	6.265	27.360		
6.270	971.700	6.270	17.280		
6.275	983.550	6.275	17.280		
6.280	987.500	6.280	14.880		
6.285	979.600	6.285	4.800		
6.290	979.600	6.290	2.400		
6.295	967.750	6.295	2.400		
6.300	952.500	6.305	4.800		
6.305	941.070	6.305	4.800		
6.310	922.020	6.310	4.800		
6.315	902.970	6.315	4.800		
6.320	883.920	6.320	0.000		
6.325	864.870	6.325	0.000		
6.330	849.630	6.330	0.000		
6.335	830.580	6.335	0.000		
6.340	803.910	6.340	2.500		
6.345	784.860	6.345	0.000		
6.355	773.430	6.350	0.000		
6.355	773.430	6.355	0.000		
6.360	754.380	6.360	0.000		
6.365	742.950	6.365	0.000		
6.370	727.710	6.370	0.000		
6.375	720.090	6.375	0.000		
6.380	710.000	6.380	2.500		
6.385	695.800	6.385	5.000		
6.390	690.120	6.390	0.000		
6.395	687.280	6.395	0.000		
6.400	675.920	6.400	0.000		
6.405	673.080	6.405	0.000		
6.410	667.400	6.410	0.000		
6.415	661.720	6.415	5.000		
6.420	664.560	6.420	2.500		
6.425	661.720	6.430	0.000		
6.430	658.880	6.430	0.000		
6.435	661.720	6.435	0.000		
6.440	667.400	6.440	0.000		
6.445	673.080	6.445	2.500		
6.450	673.080	6.450	2.500		
6.455	676.200	6.455	0.000		
6.460	685.860	6.460	0.000		
6.465	685.860	6.465	0.000		
6.470	692.300	6.470	0.000		
6.475	701.960	6.475	0.000		
6.480	701.960	6.480	0.000		
6.485	714.840	6.485	0.000		
6.495	724.500	6.490	0.000		
6.495	724.500	6.495	0.000		
6.500	730.940	6.500	0.000		
6.505	740.600	6.505	0.000		
6.510	750.260	6.510	0.000		
6.515	763.140	6.515	2.500		
6.520	776.020	6.520	2.500		
6.525	788.900	6.525	0.000		
6.530	805.000	6.530	0.000		
6.535	814.060	6.535	0.000		
6.540	830.180	6.540	2.500		
6.545	846.300	6.545	2.500		
6.550	858.390	6.550	0.000		
6.555	874.510	6.560	7.500		
6.560	882.570	6.560	7.500		
6.565	898.690	6.565	0.000		
6.570	906.750	6.570	2.490		
6.575	918.840	6.575	0.000		
6.580	934.960	6.580	0.000		
6.585	947.050	6.585	2.490		
6.590	959.140	6.590	0.000		
6.595	971.230	6.595	4.980		
6.600	991.380	6.600	0.000		
6.605	1007.500	6.605	4.980		
6.610	1013.550	6.610	4.980		
6.615	1022.250	6.615	4.980		
6.620	1030.950	6.620	2.490		
6.630	1044.000	6.625	4.980		
6.630	1044.000	6.630	0.000		
6.635	1057.050	6.635	3.740		
6.640	1057.050	6.640	11.220		
6.645	1070.100	6.645	24.310		
6.650	1070.100	6.650	29.920		
6.655	1074.450	6.655	46.750		
6.660	1083.150	6.660	67.320		
6.665	1083.150	6.665	100.980		
6.670	1078.800	6.670	138.380		
6.675	1074.450	6.675	179.520		
6.680	1087.500	6.680	226.270		
6.685	1065.750	6.690	278.630		
6.690	1057.500	6.690	278.630		
6.695	1044.810	6.695	342.210		
6.700	1027.890	6.700	413.270		
6.705	1006.740	6.705	467.500		
6.710	977.130	6.710	509.760		
6.715	951.750	6.715	534.540		
6.720	922.140	6.720	562.860		
6.725	875.610	6.725	584.100		
6.730	812.160	6.730	615.960		
6.735	740.250	6.735	647.820		
6.740	672.570	6.740	683.220		
6.745	596.430	6.745	704.460		
6.750	520.290	6.750	729.240		
6.755	439.920	6.755	761.100		
6.760	372.240	6.760	782.340		
6.770	300.000	6.765	814.200		
6.770	300.000	6.770	838.980		
6.775	244.800	6.775	860.220		
6.780	199.200	6.780	885.000		
6.785	169.200	6.785	912.070		
6.790	134.400	6.790	928.430		
6.795	120.000	6.795	944.790		
6.800	94.800	6.800	957.060		
6.805	79.200	6.805	973.420		
6.810	67.200	6.815	993.870		
6.815	51.600	6.815	993.870		
6.820	39.600	6.820	1006.140		
6.825	30.000	6.825	1006.140		
6.830	30.000	6.830	1022.500		
6.835	16.800	6.835	1006.140		
6.840	16.800	6.840	1006.140		
6.845	9.940	6.845	997.960		
6.850	17.500	6.850	993.870		
6.855	4.970	6.855	985.690		
6.860	0.000	6.860	973.420		
6.865	0.000	6.865	967.500		
6.870	0.000	6.870	948.150		
6.875	0.000	6.875	932.670		
6.880	2.450	6.880	917.190		
6.885	0.000	6.885	901.710		
6.890	0.000	6.890	886.230		
6.895	0.000	6.895	878.490		
6.900	0.000	6.900	859.140		
6.910	0.000	6.905	839.790		
6.910	0.000	6.910	820.440		
6.915	0.000	6.915	808.830		
6.920	0.000	6.920	797.220		
6.925	0.000	6.925	789.480		
6.930	2.500	6.930	774.000		
6.935	0.000	6.935	770.130		
6.940	5.000	6.945	760.000		
6.945	2.500	6.945	760.000		
6.950	2.500	6.950	753.920		
6.955	0.000	6.955	747.840		
6.960	0.000	6.960	744.800		
6.965	0.000	6.965	735.680		
6.970	0.000	6.970	729.600		
6.975	2.500	6.975	738.720		
6.980	0.000	6.980	732.640		
6.985	0.000	6.985	735.680		
6.990	0.000	6.990	729.600		
6.995	0.000	6.995	729.600		
7.000	7.500	7.000	738.720		
7.005	7.500	7.005	735.680		
7.010	4.980	7.010	738.720		
7.015	7.500	7.015	744.800		
7.020	4.980	7.020	752.400		
7.025	7.500	7.025	756.000		
7.030	4.980	7.030	763.200		
7.035	4.980	7.035	770.400		
7.045	2.490	7.040	774.000		
7.045	2.490	7.045	788.400		
7.050	2.490	7.050	799.200		
7.055	7.500	7.055	810.000		
7.060	4.980	7.060	817.200		
7.065	7.500	7.065	828.000		
7.070	7.500	7.075	842.400		
7.075	4.980	7.075	842.400		
7.080	7.500	7.080	849.600		
7.085	4.980	7.085	867.600		
7.090	9.960	7.090	882.000		
7.095	4.980	7.095	900.000		
7.100	4.980	7.100	909.480		
7.105	7.500	7.105	922.350		
7.110	7.500	7.110	939.510		
7.115	12.480	7.115	952.380		
7.120	12.480	7.120	960.960		
7.125	7.500	7.125	973.830		
7.130	9.960	7.130	986.700		
7.135	9.960	7.135	999.570		
7.140	15.000	7.140	1012.440		
7.145	9.960	7.145	1029.600		
7.150	9.960	7.150	1029.600		
7.155	9.870	7.155	1042.470		
7.160	17.430	7.160	1046.760		
7.165	22.470	7.165	1063.920		
7.170	9.870	7.170	1072.500		
7.175	17.430	7.175	1079.680		
7.185	17.430	7.180	1088.640		
7.185	17.430	7.185	1093.120		
7.190	17.430	7.190	1097.600		
7.195	14.910	7.195	1102.080		
7.200	14.910	7.205	1111.040		
7.205	14.910	7.205	1111.040		
7.210	12.390	7.210	1111.040		
7.215	14.910	7.215	1111.040		
7.220	24.990	7.220	1120.000		
7.225	34.860	7.225	1115.520		
7.230	52.500	7.230	1106.560		
7.235	77.430	7.235	1102.080		
7.240	106.800	7.240	1093.120		
7.245	136.170	7.245	1084.160		
7.250	173.550	7.250	1066.240		
7.255	210.930	7.255	1052.500		
7.260	240.300	7.260	1023.030		
7.265	280.350	7.265	993.560		
7.270	328.410	7.270	955.670		
7.275	379.140	7.275	917.780		
7.280	432.540	7.280	871.470		
7.285	483.270	7.285	820.950		
7.290	534.000	7.290	753.590		
7.295	576.720	7.295	682.020		
7.300	624.780	7.300	606.240		
7.305	667.500	7.305	530.460		
7.310	699.540	7.310	454.680		
7.315	727.050	7.315	366.270		
7.325	746.700	7.320	303.120		
7.325	746.700	7.330	244.180		
7.330	770.280	7.330	244.180		
7.335	793.860	7.335	202.500		
7.340	821.370	7.340	169.290		
7.345	856.740	7.345	132.030		
7.350	876.390	7.350	97.200		
7.355	896.040	7.355	72.090		
7.360	907.830	7.360	62.370		
7.365	927.480	7.365	46.980		
7.370	947.130	7.370	42.120		
7.375	962.850	7.375	37.260		
7.380	974.640	7.380	34.830		
7.385	982.500	7.385	29.970		
7.390	982.080	7.390	29.970		
7.395	986.040	7.395	19.440		
7.400	990.000	7.400	17.010		
7.405	982.080	7.405	14.580		
7.410	974.160	7.410	4.980		
7.415	962.280	7.415	2.490		
7.420	938.520	7.420	7.500		
7.425	922.680	7.425	2.490		
7.430	906.840	7.430	2.490		
7.435	887.040	7.435	0.000		
7.440	867.240	7.440	0.000		
7.445	843.480	7.445	0.000		
7.450	823.680	7.450	0.000		
7.460	803.880	7.460	0.000		
7.460	803.880	7.460	0.000		
7.465	776.160	7.465	0.000		
7.470	765.000	7.470	0.000		
7.475	749.700	7.475	0.000		
7.480	731.340	7.480	0.000		
7.485	722.160	7.485	0.000		
7.490	709.920	7.490	0.000		
7.495	703.800	7.495	0.000		
7.500	685.440	7.500	0.000		
7.505	676.260	7.505	0.000		
7.510	667.080	7.510	0.000		
7.515	654.840	7.515	0.000		
7.520	654.840	7.520	0.000		
7.525	651.780	7.525	0.000		
7.530	642.600	7.530	2.490		
7.535	639.540	7.535	0.000		
7.540	639.540	7.540	0.000		
7.545	641.670	7.545	0.000		
7.550	638.740	7.550	2.490		
7.555	641.670	7.555	7.500		
7.560	644.600	7.560	2.490		
7.565	647.530	7.565	0.000		
7.570	656.320	7.570	0.000		
7.575	656.320	7.575	0.000		
7.580	662.180	7.580	0.000		
7.585	670.970	7.590	2.500		
7.590	679.760	7.590	2.500		
7.600	688.550	7.595	5.000		
7.600	688.550	7.600	0.000		
7.605	697.340	7.605	5.000		
7.610	709.060	7.610	0.000		
7.615	717.850	7.615	2.500		
7.620	732.500	7.620	0.000		
7.625	741.690	7.625	2.500		
7.630	749.070	7.630	0.000		
7.635	756.450	7.635	0.000		
7.640	774.900	7.640	0.000		
7.645	797.040	7.645	0.000		
7.650	800.730	7.650	0.000		
7.655	819.180	7.655	0.000		
7.660	830.250	7.660	2.490		
7.665	841.320	7.665	4.980		
7.670	859.770	7.670	7.500		
7.675	870.840	7.675	4.980		
7.680	885.600	7.680	4.980		
7.685	896.670	7.685	7.500		
7.690	911.430	7.690	7.500		
7.695	922.500	7.695	4.980		
7.700	928.560	7.700	4.980		
7.705	941.280	7.705	7.500		
7.710	949.760	7.710	2.490		
7.715	970.960	7.720	4.980		
7.720	979.440	7.720	4.980		
7.725	992.160	7.725	4.880		
7.735	1004.880	7.730	12.200		
7.735	1004.880	7.735	9.760		
7.740	1009.120	7.740	7.320		
7.745	1026.080	7.745	2.440		
7.750	1026.080	7.750	4.880		
7.755	1038.800	7.755	2.440		
7.760	1038.800	7.760	7.320		
7.765	1047.280	7.765	14.640		
7.770	1051.520	7.770	21.960		
7.775	1060.000	7.775	34.770		
7.780	1065.000	7.780	64.660		
7.785	1056.480	7.785	89.670		
7.790	1060.740	7.790	119.560		
7.795	1060.740	7.795	152.500		
7.800	1056.480	7.800	190.400		
7.805	1043.700	7.805	232.400		
7.810	1030.920	7.810	280.000		
7.815	1022.400	7.815	341.600		
7.820	1005.360	7.820	394.800		
7.825	984.060	7.825	445.200		
7.830	958.500	7.830	484.400		
7.835	920.160	7.835	512.400		
7.840	873.300	7.845	529.200		
7.845	834.960	7.845	529.200		
7.850	783.840	7.850	557.200		
7.855	697.500	7.855	582.400		
7.860	608.220	7.860	602.000		
7.865	535.680	7.865	632.800		
7.875	454.770	7.870	663.600		
7.875	454.770	7.875	700.000		
7.880	387.810	7.880	736.100		
7.885	318.060	7.885	766.410		
7.890	262.260	7.890	796.720		
7.895	214.830	7.895	831.360		
7.900	181.350	7.900	866.000		
7.905	150.660	7.905	904.970		
7.910	122.760	7.910	926.620		
7.915	106.020	7.915	948.270		
7.920	89.280	7.920	974.250		
7.925	69.750	7.925	995.900		
7.930	55.800	7.930	1017.550		
7.935	45.000	7.935	1043.530		
7.940	37.440	7.940	1052.190		
7.945	29.880	7.945	1069.510		
7.950	24.840	7.950	1082.500		
7.955	19.980	7.955	1080.000		
7.960	12.420	7.960	1071.360		
7.965	9.900	7.965	1058.400		
7.970	9.900	7.975	1054.080		
7.975	4.860	7.975	1054.080		
7.980	0.000	7.980	1041.120		
7.985	0.000	7.985	1032.480		
7.990	0.000	7.990	1006.560		
7.995	0.000	7.995	993.600		
8.000	0.000	8.000	976.320		
8.005	0.000	8.005	959.040		
8.015	0.000	8.010	941.760		
8.015	0.000	8.015	924.480		
8.020	0.000	8.020	898.560		
8.025	0.000	8.025	881.280		
8.030	0.000	8.030	864.000		
8.035	0.000	8.035	842.500		
8.040	2.500	8.040	822.280		
8.045	0.000	8.045	802.060		
8.050	0.000	8.050	788.580		
8.055	0.000	8.055	775.100		
8.060	0.000	8.060	761.620		
8.065	0.000	8.065	744.770		
8.070	2.500	8.070	734.660		
8.075	2.500	8.075	727.920		
8.080	2.500	8.080	721.180		
8.085	0.000	8.085	714.440		
8.090	0.000	8.090	711.070		
8.095	0.000	8.095	704.330		
8.100	5.000	8.105	704.330		
8.105	0.000	8.105	704.330		
8.110	0.000	8.110	697.590		
8.115	2.500	8.115	699.300		
8.120	2.500	8.120	696.150		
8.125	0.000	8.125	696.150		
8.130	2.500	8.130	696.150		
8.135	0.000	8.135	702.450		
8.140	0.000	8.140	702.450		
8.150	0.000	8.145	705.600		
8.150	0.000	8.150	718.200		
8.155	2.500	8.155	721.350		
8.160	0.000	8.160	727.650		
8.165	0.000	8.165	733.950		
8.170	0.000	8.170	749.700		
8.175	0.000	8.175	762.300		
8.180	0.000	8.180	774.900		
8.185	2.490	8.185	787.500		
8.190	2.490	8.190	796.470		
8.195	0.000	8.195	813.150		
8.200	4.980	8.200	825.660		
8.205	2.490	8.205	846.510		
8.210	0.000	8.210	863.190		
8.215	2.490	8.215	879.870		
8.220	2.490	8.220	896.550		
8.225	7.500	8.225	921.570		
8.230	7.500	8.235	938.250		
8.235	2.490	8.235	938.250		
8.240	4.980	8.240	954.930		
8.245	7.500	8.245	979.950		
8.250	9.900	8.250	996.630		
8.255	15.000	8.255	1013.310		
8.260	12.450	8.260	1029.990		
8.265	12.450	8.265	1042.500		
8.270	17.400	8.270	1053.360		
8.275	15.000	8.275	1071.600		
8.280	15.000	8.280	1080.720		
8.290	12.450	8.285	1089.840		
8.290	12.450	8.290	1098.960		
8.295	12.450	8.295	1103.520		
8.300	15.000	8.300	1112.640		
8.305	19.950	8.305	1117.200		
8.310	15.000	8.310	1126.320		
8.315	30.000	8.315	1130.880		
8.320	37.500	8.320	1135.440		
8.325	52.000	8.325	1140.000		
8.330	76.960	8.330	1126.320		
8.335	124.800	8.335	1117.200		
8.340	158.080	8.340	1112.640		
8.345	195.520	8.345	1105.000		
8.350	241.280	8.350	1091.740		
8.355	276.640	8.360	1069.640		
8.360	316.160	8.360	1069.640		
8.365	355.680	8.365	1056.380		
8.370	393.120	8.370	1029.860		
8.375	426.400	8.375	998.920		
8.380	455.520	8.380	963.560		
8.385	474.240	8.385	928.200		
8.390	492.960	8.390	884.000		
8.395	520.000	8.395	839.800		
8.400	546.620	8.400	782.340		
8.405	579.200	8.405	720.460		
8.410	604.540	8.410	654.160		
8.415	629.880	8.415	579.020		
8.420	669.700	8.420	503.880		
8.430	698.660	8.425	417.500		
8.430	698.660	8.430	323.980		
8.435	731.240	8.435	263.860		
8.440	745.720	8.440	213.760		
8.445	778.300	8.445	182.030		
8.450	800.020	8.450	151.970		
8.455	828.980	8.455	118.570		
8.460	857.940	8.460	98.530		
8.465	876.040	8.465	78.490		
8.470	890.520	8.470	63.460		
8.475	905.000	8.475	53.440		
8.480	922.020	8.480	46.760		
8.485	941.070	8.490	38.410		
8.490	948.690	8.490	38.410		
8.495	952.500	8.495	36.740		
8.500	952.500	8.500	38.410		
8.505	944.880	8.505	37.500		
8.510	929.640	8.510	30.000		
8.515	929.640	8.515	32.400		
8.520	918.210	8.520	24.900		
8.525	899.160	8.525	19.950		
8.530	880.110	8.530	17.400		
8.535	872.490	8.535	9.900		
8.540	853.440	8.540	12.450		
8.545	834.390	8.545	2.400		
8.550	811.530	8.550	4.950		
8.555	802.500	8.555	4.950		
8.565	780.030	8.560	2.400		
8.565	780.030	8.565	2.400		
8.570	773.610	8.570	7.500		
8.575	763.980	8.575	0.000		
8.580	747.930	8.580	0.000		
8.585	741.510	8.585	0.000		
8.590	731.880	8.590	0.000		
8.595	715.830	8.595	0.000		
8.600	709.410	8.600	0.000		
8.605	699.780	8.605	0.000		
8.610	690.150	8.610	0.000		
8.615	683.730	8.620	0.000		
8.620	680.520	8.620	0.000		
8.625	674.100	8.625	0.000		
8.630	664.470	8.630	0.000		
8.635	667.590	8.635	0.000		
8.640	661.810	8.640	0.000		
8.645	664.700	8.645	2.500		
8.650	661.810	8.650	0.000		
8.655	664.700	8.655	0.000		
8.660	664.700	8.660	0.000		
8.665	661.810	8.665	0.000		
8.670	667.590	8.670	0.000		
8.675	670.480	8.675	0.000		
8.680	684.930	8.680	0.000		
8.685	684.930	8.685	2.500		
8.690	690.710	8.690	5.000		
8.695	699.380	8.695	5.000		
8.705	705.160	8.700	5.000		
8.705	705.160	8.705	0.000		
8.710	722.500	8.710	0.000		
8.715	720.720	8.715	0.000		
8.720	731.640	8.720	2.500		
8.725	746.200	8.725	2.500		
8.730	760.760	8.730	0.000		
8.735	768.040	8.735	0.000		
8.740	782.600	8.740	0.000		
8.745	793.520	8.750	0.000		
8.750	808.080	8.750	0.000		
8.755	819.000	8.755	2.490		
8.760	829.920	8.760	0.000		
8.765	848.120	8.765	2.490		
8.770	869.960	8.770	2.490		
8.775	877.240	8.775	2.490		
8.780	895.440	8.780	7.500		
8.785	910.000	8.785	4.980		
8.790	921.900	8.790	4.980		
8.795	930.680	8.795	7.500		
8.800	943.850	8.800	7.500		
8.805	957.020	8.805	7.500		
8.810	978.970	8.810	7.500		
8.815	992.140	8.815	12.240		
8.820	1000.920	8.820	2.160		
8.825	1018.480	8.825	9.720		
8.830	1031.650	8.830	9.720		
8.835	1044.820	8.835	9.720		
8.845	1053.600	8.840	4.680		
8.845	1053.600	8.845	4.680		
8.850	1066.770	8.850	4.680		
8.855	1079.940	8.855	4.680		
8.860	1084.330	8.860	4.680		
8.865	1097.500	8.865	12.240		
8.870	1096.160	8.875	29.880		
8.875	1100.580	8.875	29.880		
8.880	1105.000	8.880	42.480		
8.885	1096.160	8.885	57.240		
8.890	1100.580	8.890	90.000		
8.895	1091.740	8.895	126.000		
8.900	1091.740	8.900	165.000		
8.905	1078.480	8.905	204.000		
8.910	1069.640	8.910	258.000		
8.915	1047.540	8.915	315.000		
8.920	1025.440	8.920	390.000		
8.925	1003.340	8.925	465.000		
8.930	972.400	8.930	531.000		
8.935	928.200	8.935	591.000		
8.940	870.740	8.940	627.000		
8.945	820.000	8.945	657.000		
8.950	764.240	8.950	684.000		
8.955	688.800	8.955	708.000		
8.960	613.360	8.960	729.000		
8.965	534.640	8.965	750.000		
8.970	462.480	8.970	767.820		
8.980	383.760	8.975	787.920		
8.980	383.760	8.980	812.040		
8.985	321.440	8.985	832.140		
8.990	262.400	8.990	856.260		
8.995	209.920	8.995	872.340		
9.000	177.120	9.005	892.440		
9.005	144.320	9.005	892.440		
9.010	124.640	9.010	904.500		
9.015	101.680	9.015	920.580		
9.020	82.000	9.020	932.640		
9.025	65.000	9.025	948.720		
9.030	49.920	9.030	964.800		
9.035	37.440	9.035	980.880		
9.040	39.780	9.040	992.940		
9.045	34.840	9.045	1005.000		
9.050	32.500	9.050	1015.000		
9.055	24.960	9.055	1010.940		
9.060	22.360	9.060	1006.880		
9.065	17.420	9.065	1006.880		
9.070	12.480	9.070	994.700		
9.075	9.880	9.075	990.640		
9.080	4.940	9.080	974.400		
9.085	2.340	9.085	962.220		
9.090	4.940	9.090	941.920		
9.095	7.280	9.095	921.620		
9.100	0.000	9.100	909.440		
9.105	0.000	9.105	897.260		
9.110	0.000	9.110	876.960		
9.120	2.500	9.115	860.720		
9.120	2.500	9.120	832.300		
9.125	2.500	9.125	820.000		
9.130	0.000	9.135	806.880		
9.135	0.000	9.135	806.880		
9.140	0.000	9.140	790.480		
9.145	2.500	9.145	783.920		
9.150	0.000	9.150	767.520		
9.155	2.500	9.155	760.960		
9.160	2.500	9.160	751.120		
9.165	0.000	9.165	744.560		
9.170	0.000	9.170	731.440		
9.175	0.000	9.175	724.880		
9.180	0.000	9.180	724.880		
9.185	0.000	9.185	718.320		
9.190	0.000	9.190	711.760		
9.195	0.000	9.195	715.040		
9.200	0.000	9.200	711.760		
9.205	2.500	9.205	717.060		
9.210	5.000	9.210	713.830		
9.215	2.500	9.215	717.060		
9.220	0.000	9.220	717.060		
9.225	0.000	9.225	720.290		
9.230	0.000	9.230	729.980		
9.235	0.000	9.235	729.980		
9.240	0.000	9.240	742.900		
9.245	0.000	9.245	746.130		
9.250	0.000	9.250	755.820		
9.260	4.980	9.260	762.280		
9.260	4.980	9.260	762.280		
9.265	2.490	9.265	771.970		
9.270	0.000	9.270	784.890		
9.275	0.000	9.275	797.810		
9.280	0.000	9.280	807.500		
9.285	4.980	9.285	821.100		
9.290	2.490	9.290	832.830		
9.295	2.490	9.295	848.470		
9.300	0.000	9.300	860.200		
9.305	0.000	9.305	871.930		
9.310	4.980	9.310	883.660		
9.315	2.490	9.315	899.300		
9.320	0.000	9.320	907.120		
9.325	7.500	9.325	914.940		
9.330	4.980	9.330	922.760		
9.335	4.970	9.335	934.490		
9.340	9.940	9.340	946.220		
9.345	7.490	9.345	957.950		
9.350	9.940	9.350	961.860		
9.355	12.460	9.355	977.500		
9.360	4.970	9.360	985.500		
9.365	12.460	9.365	985.500		
9.370	7.490	9.370	1003.020		
9.375	9.940	9.375	1011.780		
9.380	17.500	9.380	1024.920		
9.385	17.500	9.390	1029.300		
9.395	12.460	9.390	1029.300		
9.395	12.460	9.395	1042.440		
9.400	12.460	9.400	1046.820		
9.405	14.980	9.405	1055.580		
9.410	14.980	9.410	1059.960		
9.415	12.000	9.415	1064.340		
9.420	9.600	9.420	1073.100		
9.425	12.000	9.425	1086.240		
9.430	12.000	9.430	1090.620		
9.435	26.400	9.435	1095.000		
9.440	37.200	9.440	1093.680		
9.445	49.200	9.445	1102.500		
9.450	74.400	9.450	1098.090		
9.455	99.600	9.455	1089.270		
9.460	134.400	9.460	1089.270		
9.465	162.000	9.465	1071.630		
9.470	192.000	9.470	1067.220		
9.475	226.800	9.475	1045.170		
9.480	264.000	9.480	1023.120		
9.485	300.000	9.485	996.660		
9.490	339.840	9.490	961.380		
9.495	400.020	9.495	926.100		
9.500	463.740	9.500	882.000		
9.505	509.760	9.505	815.850		
9.510	566.400	9.510	745.290		
9.515	605.340	9.520	680.000		
9.520	640.740	9.520	680.000		
9.525	665.520	9.525	617.440		
9.535	700.920	9.530	544.000		
9.535	700.920	9.535	462.400		
9.540	725.700	9.540	397.120		
9.545	750.480	9.545	323.680		
9.550	782.340	9.550	266.560		
9.555	824.820	9.555	220.320		
9.560	853.140	9.560	182.240		
9.565	885.000	9.565	149.600		
9.570	912.580	9.570	122.400		
9.575	948.020	9.575	92.480		
9.580	974.600	9.580	70.720		
9.585	1014.470	9.585	57.120		
9.590	1041.050	9.590	43.520		
9.595	1063.200	9.595	35.000		
9.600	1076.490	9.600	32.480		
9.605	1089.780	9.605	24.920		
9.610	1089.780	9.610	19.880		
9.615	1098.640	9.615	19.880		
9.620	1107.500	9.620	17.500		
9.625	1094.210	9.625	7.420		
9.630	1089.780	9.630	7.420		
9.635	1080.920	9.635	2.380		
9.640	1067.630	9.640	0.000		
9.645	1052.500	9.650	2.380		
9.650	1039.870	9.650	2.380		
9.655	1018.820	9.655	0.000		
9.660	1006.190	9.660	2.380		
9.670	976.720	9.665	0.000		
9.670	976.720	9.670	0.000		
9.675	964.090	9.675	0.000		
9.680	943.040	9.680	5.000		
9.685	926.200	9.685	0.000		
9.690	909.360	9.690	0.000		
9.695	896.730	9.695	0.000		
9.700	879.890	9.700	0.000		
9.705	867.260	9.705	0.000		
9.710	854.630	9.710	0.000		
9.715	842.000	9.715	0.000		
9.720	825.160	9.720	0.000		
9.725	820.000	9.725	0.000		
9.730	803.600	9.730	0.000		
9.735	800.320	9.735	0.000		
9.740	787.200	9.740	2.500		
9.745	780.640	9.745	0.000		
9.750	780.640	9.750	0.000		
9.755	770.800	9.755	0.000		
9.760	764.240	9.760	0.000		
9.765	764.240	9.765	5.000		
9.770	757.680	9.775	0.000		
9.775	757.680	9.775	0.000		
9.780	757.680	9.780	0.000		
9.785	754.400	9.785	0.000		
9.790	754.400	9.790	0.000		
9.795	754.400	9.795	0.000		
9.800	757.620	9.800	0.000		
9.810	757.620	9.805	0.000		
9.810	757.620	9.810	0.000		
9.815	764.940	9.815	0.000		
9.820	768.600	9.820	0.000		
9.825	779.580	9.825	0.000		
9.830	790.560	9.830	0.000		
9.835	797.880	9.835	0.000		
9.840	805.200	9.840	0.000		
9.845	819.840	9.845	0.000		
9.850	841.800	9.850	0.000		
9.855	856.440	9.855	2.500		
9.860	863.760	9.860	0.000		
9.865	878.400	9.865	0.000		
9.870	896.700	9.870	0.000		
9.875	915.000	9.875	0.000		
9.880	928.650	9.880	2.500		
9.885	942.240	9.885	0.000		
9.890	955.830	9.890	0.000		
9.895	973.950	9.895	2.500		
9.900	992.070	9.905	2.500		
9.905	1001.130	9.905	2.500		
9.910	1014.720	9.910	5.000		
9.915	1023.780	9.915	2.500		
9.920	1041.900	9.920	5.000		
9.925	1064.550	9.925	5.000		
9.930	1073.610	9.930	5.000		
9.935	1091.730	9.935	5.000		
9.940	1100.790	9.940	7.500		
9.950	1114.380	9.945	7.500		
9.950	1114.380	9.950	10.000		
9.955	1132.500	9.955	10.000		
9.960	1139.930	9.960	10.000		
9.965	1154.120	9.965	12.500		
9.970	1163.580	9.970	7.500		
9.975	1173.040	9.975	7.500		
9.980	1173.040	9.980	5.000		
9.985	1173.040	9.985	10.750		
9.990	1182.500	9.990	17.200		
9.995	1177.770	9.995	25.800		
10.000	1177.770	10.000	34.400		
10.005	1173.040	10.005	53.750		
10.010	1163.580	10.010	77.400		
10.015	1154.120	10.015	111.800		
10.020	1139.930	10.020	144.050		
10.025	1121.010	10.025	195.650		
10.030	1097.360	10.035	251.550		
10.035	1080.000	10.035	251.550		
10.040	1054.080	10.040	311.750		
10.045	1015.200	10.045	369.800		
10.050	980.640	10.050	436.450		
10.055	937.440	10.055	485.900		
10.060	885.600	10.060	537.500		
10.065	829.440	10.065	580.900		
10.070	764.640	10.070	614.200		
10.075	699.840	10.075	658.600		
10.085	622.080	10.080	688.200		
10.085	622.080	10.085	714.100		
10.090	548.640	10.090	736.300		
10.095	466.560	10.095	758.500		
10.100	384.480	10.100	773.300		
10.105	302.400	10.105	795.500		
10.110	233.280	10.110	814.000		
10.115	195.000	10.115	847.300		
10.120	162.240	10.120	873.200		
10.125	137.280	10.125	888.000		
10.130	109.980	10.130	910.200		
10.135	87.360	10.135	925.000		
10.140	69.420	10.140	934.080		
10.145	52.260	10.145	959.100		
10.150	42.120	10.150	971.610		
10.155	39.780	10.155	988.290		
10.160	37.440	10.165	1009.140		
10.165	27.300	10.165	1009.140		
10.170	24.960	10.170	1025.820		
10.175	17.160	10.175	1029.990		
10.180	14.820	10.180	1042.500		
10.185	14.820	10.185	1042.500		
10.190	12.500	10.190	1038.330		
10.195	2.500	10.195	1034.160		
10.200	0.000	10.200	1017.480		
10.205	2.500	10.205	1004.970		
10.210	0.000	10.210	992.460		
10.215	0.000	10.215	971.610		
10.225	5.000	10.220	960.000		
10.225	5.000	10.225	933.120		
10.230	0.000	10.230	917.760		
10.235	0.000	10.235	902.400		
10.240	0.000	10.240	887.040		
10.245	0.000	10.245	871.680		
10.250	0.000	10.250	852.480		
10.255	0.000	10.255	840.960		
10.260	0.000	10.260	817.920		
10.265	5.000	10.265	806.400		
10.270	0.000	10.270	798.720		
10.275	0.000	10.275	787.200		
10.280	2.500	10.280	768.000		
10.285	0.000	10.290	760.320		
10.290	0.000	10.290	760.320		
10.295	2.500	10.295	752.640		
10.300	0.000	10.300	744.510		
10.305	0.000	10.305	741.520		
10.310	0.000	10.310	738.530		
10.315	0.000	10.315	735.540		
10.320	0.000	10.320	732.550		
10.325	0.000	10.325	729.560		
10.330	2.500	10.330	732.550		
10.335	0.000	10.335	729.560		
10.340	0.000	10.340	732.550		
10.345	0.000	10.345	732.550		
10.350	2.490	10.350	732.550		
10.355	0.000	10.355	741.520		
10.365	4.980	10.360	747.500		
10.365	4.980	10.365	747.500		
10.370	0.000	10.370	744.510		
10.375	2.490	10.375	746.720		
10.380	2.490	10.380	757.490		
10.385	2.490	10.385	768.260		
10.390	2.490	10.390	771.850		
10.395	0.000	10.395	779.030		
10.400	2.490	10.400	786.210		
10.405	2.490	10.405	796.980		
10.410	2.490	10.410	811.340		
10.415	4.980	10.420	822.110		
10.420	7.500	10.420	822.110		
10.425	4.970	10.425	836.470		
10.430	0.000	10.430	843.650		
10.435	2.450	10.435	854.420		
10.440	2.450	10.440	872.370		
10.445	0.000	10.445	886.730		
10.450	7.490	10.450	897.500		
10.455	9.940	10.455	916.700		
10.460	7.490	10.460	925.600		
10.465	9.940	10.465	956.750		
10.470	17.500	10.470	965.650		
10.475	7.490	10.475	979.000		
10.480	9.940	10.480	996.800		
10.485	12.460	10.485	1010.150		
10.490	14.980	10.490	1019.050		
10.500	12.460	10.495	1036.850		
10.500	12.460	10.500	1045.750		
10.505	14.720	10.505	1063.550		
10.510	14.720	10.510	1076.900		
10.515	17.280	10.515	1085.800		
10.520	14.720	10.520	1099.150		
10.525	14.720	10.525	1112.500		
10.530	17.280	10.530	1120.460		
10.535	17.280	10.535	1134.350		
10.540	14.720	10.540	1138.980		
10.545	9.600	10.550	1143.610		
10.550	22.400	10.550	1143.610		
10.555	37.120	10.555	1152.870		
10.560	56.960	10.560	1157.500		
10.565	81.920	10.565	1157.500		
10.570	129.920	10.570	1152.870		
10.575	160.000	10.575	1148.240		
10.580	195.960	10.580	1138.980		
10.585	227.200	10.585	1125.090		
10.590	269.800	10.590	1111.200		
10.595	309.560	10.595	1092.680		
10.600	357.840	10.600	1074.160		
10.605	391.920	10.605	1046.380		
10.610	440.200	10.610	1005.000		
10.615	479.960	10.615	964.800		
10.620	519.720	10.620	928.620		
10.625	562.320	10.625	872.340		
10.630	596.400	10.630	808.020		
10.640	630.480	10.635	727.620		
10.640	630.480	10.640	631.140		
10.645	664.560	10.645	554.760		
10.650	681.600	10.650	490.440		
10.655	710.000	10.655	406.020		
10.660	732.480	10.660	333.660		
10.665	771.720	10.665	273.360		
10.670	806.600	10.670	229.140		
10.675	841.480	10.680	180.900		
10.680	876.360	10.680	180.900		
10.685	902.520	10.685	140.700		
10.690	928.680	10.690	110.000		
10.695	959.200	10.695	87.120		
10.700	985.360	10.700	72.160		
10.705	1015.880	10.705	55.000		
10.710	1033.320	10.710	44.880		
10.715	1059.480	10.715	42.240		
10.720	1072.560	10.720	29.920		
10.725	1090.000	10.725	27.280		
10.730	1085.640	10.730	27.280		
10.735	1085.000	10.735	24.640		
10.740	1080.660	10.740	17.160		
10.745	1076.320	10.745	12.320		
10.750	1058.960	10.750	4.840		
10.755	1037.260	10.755	12.320		
10.760	1019.900	10.760	7.480		
10.765	993.860	10.765	0.000		
10.770	972.160	10.770	0.000		
10.780	954.800	10.775	4.980		
10.780	954.800	10.780	0.000		
10.785	928.760	10.785	2.490		
10.790	907.060	10.790	0.000		
10.795	881.020	10.795	0.000		
10.800	863.660	10.805	7.500		
10.805	846.300	10.805	7.500		
10.810	828.940	10.810	0.000		
10.815	812.500	10.815	0.000		
10.820	799.500	10.820	0.000		
10.825	783.250	10.825	0.000		
10.830	767.000	10.830	0.000		
10.835	757.250	10.835	0.000		
10.840	750.750	10.840	0.000		
10.845	734.500	10.845	5.000		
10.850	731.250	10.850	2.500		
10.855	728.000	10.855	0.000		
10.860	724.750	10.860	0.000		
10.865	715.000	10.865	0.000		
10.870	715.000	10.870	0.000		
10.875	715.000	10.875	0.000		
10.880	715.000	10.880	0.000		
10.885	715.000	10.885	0.000		
10.890	715.000	10.890	0.000		
10.895	715.000	10.895	0.000		
10.900	715.000	10.900	0.000		
10.905	721.500	10.905	0.000		
10.915	718.250	10.910	0.000		
10.915	718.250	10.915	0.000		
10.920	724.750	10.920	0.000		
10.925	731.250	10.925	0.000		
10.930	734.500	10.935	0.000		
10.935	747.500	10.935	0.000		
10.940	757.250	10.940	0.000		
10.945	763.750	10.945	0.000		
10.950	773.500	10.950	0.000		
10.955	789.750	10.955	0.000		
10.960	799.500	10.960	0.000		
10.965	812.500	10.965	0.000		
10.970	822.000	10.970	0.000		
10.975	834.330	10.975	0.000		
10.980	854.880	10.980	0.000		
10.985	867.210	10.985	0.000		
10.990	883.650	10.990	0.000		
10.995	891.870	10.995	0.000		
11.000	916.530	11.000	0.000		
11.005	924.750	11.005	2.480		
11.010	945.300	11.010	2.480		
11.015	961.740	11.015	2.480		
11.020	974.070	11.020	2.480		
11.025	986.400	11.025	7.480		
11.030	998.730	11.030	10.000		
11.035	1011.060	11.035	7.480		
11.040	1027.500	11.040	7.480		
11.045	1039.600	11.045	5.000		
11.055	1048.800	11.050	10.000		
11.055	1048.800	11.055	7.480		
11.060	1067.200	11.065	10.000		
11.065	1071.800	11.065	10.000		
11.070	1081.000	11.070	10.000		
11.075	1094.800	11.075	5.000		
11.080	1108.600	11.080	9.360		
11.085	1117.800	11.085	7.020		
11.090	1122.400	11.090	4.680		
11.095	1127.000	11.095	2.340		
11.100	1136.200	11.100	0.000		
11.105	1140.800	11.105	4.680		
11.110	1150.000	11.110	2.340		
11.115	1150.000	11.115	9.360		
11.120	1145.400	11.120	21.840		
11.125	0.000	11.125	39.780		
11.130	0.000	11.130	64.740		
11.135	0.000	11.135	89.700		
11.140	0.000	11.140	124.800		
11.145	0.000	11.145	156.780		
11.150	0.000	11.150	195.000		
11.155	0.000	11.155	0.000		
11.160	0.000	11.160	0.000		
11.165	0.000	11.165	0.000		
11.170	0.000	11.170	0.000		
11.175	0.000	11.175	0.000		
11.180	0.000	11.180	0.000		
11.185	0.000	11.185	0.000		
11.190	0.000	11.190	0.000		

